"Time[s]	",Voltage[V],,
0.001,0.07,,Rate:1kHz
0.002,0.06,,
0.003,0.06,,
0.004,0.06,,
0.005,0.08,,
0.006,0.05,,
0.007,0.03,,
0.008,0.03,,
0.009,0,,
0.01,-0.01,,
0.011,-0.03,,
0.012,-0.07,,
0.013,-0.08,,
0.014,-0.11,,
0.015,-0.08,,
0.016,-0.06,,
0.017,-0.07,,
0.018,-0.02,,
0.019,0,,
0.02,0.04,,
0.021,0.06,,
0.022,0.07,,
0.023,0.06,,
0.024,0.06,,
0.025,0.07,,
0.026,0.06,,
0.027,0.04,,
0.028,0.05,,
0.029,0.02,,
0.03,0.01,,
0.031,-0.03,,
0.032,-0.06,,
0.033,-0.07,,
0.034,-0.09,,
0.035,-0.09,,
0.036,-0.09,,
0.037,-0.08,,
0.038,-0.04,,
0.039,-0.02,,
0.04,0.04,,
0.041,0.05,,
0.042,0.07,,
0.043,0.07,,
0.044,0.06,,
0.045,0.05,,
0.046,0.06,,
0.047,0.04,,
0.048,0.04,,
0.049,0.02,,
0.05,0.01,,
0.051,-0.01,,
0.052,-0.04,,
0.053,-0.07,,
0.054,-0.07,,
0.055,-0.09,,
0.056,-0.08,,
0.057,-0.08,,
0.058,-0.07,,
0.059,-0.02,,
0.06,0.01,,
0.061,0.03,,
0.062,0.08,,
0.063,0.07,,
0.064,0.09,,
0.065,0.07,,
0.066,0.06,,
0.067,0.05,,
0.068,0.06,,
0.069,0.03,,
0.07,0.01,,
0.071,0,,
0.072,-0.03,,
0.073,-0.06,,
0.074,-0.08,,
0.075,-0.1,,
0.076,-0.11,,
0.077,-0.09,,
0.078,-0.07,,
0.079,-0.03,,
0.08,0,,
0.081,0.01,,
0.082,0.03,,
0.083,0.07,,
0.084,0.06,,
0.085,0.06,,
0.086,0.05,,
0.087,0.05,,
0.088,0.05,,
0.089,0.02,,
0.09,0.02,,
0.091,0.02,,
0.092,-0.01,,
0.093,-0.03,,
0.094,-0.06,,
0.095,-0.09,,
0.096,-0.11,,
0.097,-0.08,,
0.098,-0.1,,
0.099,-0.08,,
0.1,-0.04,,
0.101,0.01,,
0.102,0.04,,
0.103,0.05,,
0.104,0.08,,
0.105,0.07,,
0.106,0.07,,
0.107,0.06,,
0.108,0.04,,
0.109,0.05,,
0.11,0.04,,
0.111,0.02,,
0.112,0.01,,
0.113,-0.03,,
0.114,-0.03,,
0.115,-0.08,,
0.116,-0.08,,
0.117,-0.09,,
0.118,-0.08,,
0.119,-0.08,,
0.12,-0.05,,
0.121,-0.01,,
0.122,0.05,,
0.123,0.05,,
0.124,0.06,,
0.125,0.09,,
0.126,0.09,,
0.127,0.08,,
0.128,0.07,,
0.129,0.06,,
0.13,0.04,,
0.131,0.02,,
0.132,0.01,,
0.133,-0.01,,
0.134,-0.05,,
0.135,-0.07,,
0.136,-0.1,,
0.137,-0.1,,
0.138,-0.09,,
0.139,-0.07,,
0.14,-0.07,,
0.141,-0.01,,
0.142,0.01,,
0.143,0.04,,
0.144,0.07,,
0.145,0.06,,
0.146,0.08,,
0.147,0.07,,
0.148,0.06,,
0.149,0.07,,
0.15,0.06,,
0.151,0.02,,
0.152,0.01,,
0.153,-0.02,,
0.154,-0.02,,
0.155,-0.05,,
0.156,-0.09,,
0.157,-0.1,,
0.158,-0.12,,
0.159,-0.07,,
0.16,-0.06,,
0.161,-0.02,,
0.162,0,,
0.163,0.01,,
0.164,0.04,,
0.165,0.06,,
0.166,0.06,,
0.167,0.07,,
0.168,0.07,,
0.169,0.04,,
0.17,0.06,,
0.171,0.06,,
0.172,0.05,,
0.173,0.03,,
0.174,-0.01,,
0.175,-0.04,,
0.176,-0.07,,
0.177,-0.11,,
0.178,-0.11,,
0.179,-0.08,,
0.18,-0.05,,
0.181,-0.05,,
0.182,-0.02,,
0.183,0.02,,
0.184,0.04,,
0.185,0.06,,
0.186,0.07,,
0.187,0.06,,
0.188,0.06,,
0.189,0.04,,
0.19,0.06,,
0.191,0.04,,
0.192,0.02,,
0.193,0.01,,
0.194,-0.01,,
0.195,-0.02,,
0.196,-0.05,,
0.197,-0.09,,
0.198,-0.11,,
0.199,-0.09,,
0.2,-0.09,,
0.201,-0.08,,
0.202,-0.04,,
0.203,-0.01,,
0.204,0,,
0.205,0.05,,
0.206,0.06,,
0.207,0.05,,
0.208,0.06,,
0.209,0.06,,
0.21,0.06,,
0.211,0.05,,
0.212,0.03,,
0.213,0.04,,
0.214,0.01,,
0.215,-0.03,,
0.216,-0.04,,
0.217,-0.07,,
0.218,-0.1,,
0.219,-0.08,,
0.22,-0.08,,
0.221,-0.07,,
0.222,-0.06,,
0.223,-0.02,,
0.224,0,,
0.225,0.03,,
0.226,0.07,,
0.227,0.04,,
0.228,0.05,,
0.229,0.06,,
0.23,0.06,,
0.231,0.06,,
0.232,0.06,,
0.233,0.06,,
0.234,0.01,,
0.235,0.01,,
0.236,-0.03,,
0.237,-0.06,,
0.238,-0.08,,
0.239,-0.1,,
0.24,-0.09,,
0.241,-0.07,,
0.242,-0.07,,
0.243,-0.05,,
0.244,0,,
0.245,0.03,,
0.246,0.04,,
0.247,0.07,,
0.248,0.07,,
0.249,0.06,,
0.25,0.06,,
0.251,0.07,,
0.252,0.05,,
0.253,0.04,,
0.254,0.02,,
0.255,0,,
0.256,-0.02,,
0.257,-0.03,,
0.258,-0.06,,
0.259,-0.08,,
0.26,-0.1,,
0.261,-0.1,,
0.262,-0.07,,
0.263,-0.05,,
0.264,-0.03,,
0.265,0.01,,
0.266,0.03,,
0.267,0.08,,
0.268,0.06,,
0.269,0.06,,
0.27,0.08,,
0.271,0.05,,
0.272,0.05,,
0.273,0.04,,
0.274,0.03,,
0.275,0.01,,
0.276,0.01,,
0.277,-0.03,,
0.278,-0.06,,
0.279,-0.09,,
0.28,-0.1,,
0.281,-0.07,,
0.282,-0.07,,
0.283,-0.07,,
0.284,-0.03,,
0.285,0.01,,
0.286,0.04,,
0.287,0.06,,
0.288,0.09,,
0.289,0.05,,
0.29,0.08,,
0.291,0.05,,
0.292,0.04,,
0.293,0.05,,
0.294,0.04,,
0.295,0.02,,
0.296,0.01,,
0.297,-0.02,,
0.298,-0.02,,
0.299,-0.07,,
0.3,-0.08,,
0.301,-0.1,,
0.302,-0.07,,
0.303,-0.08,,
0.304,-0.05,,
0.305,-0.01,,
0.306,0.02,,
0.307,0.04,,
0.308,0.06,,
0.309,0.07,,
0.31,0.07,,
0.311,0.07,,
0.312,0.08,,
0.313,0.05,,
0.314,0.06,,
0.315,0.03,,
0.316,0.01,,
0.317,-0.02,,
0.318,-0.03,,
0.319,-0.06,,
0.32,-0.1,,
0.321,-0.11,,
0.322,-0.1,,
0.323,-0.12,,
0.324,-0.09,,
0.325,-0.04,,
0.326,-0.02,,
0.327,0.03,,
0.328,0.07,,
0.329,0.1,,
0.33,0.09,,
0.331,0.08,,
0.332,0.08,,
0.333,0.06,,
0.334,0.04,,
0.335,0.03,,
0.336,0.01,,
0.337,0.03,,
0.338,-0.02,,
0.339,-0.05,,
0.34,-0.05,,
0.341,-0.1,,
0.342,-0.1,,
0.343,-0.1,,
0.344,-0.08,,
0.345,-0.06,,
0.346,-0.04,,
0.347,0,,
0.348,0.02,,
0.349,0.03,,
0.35,0.04,,
0.351,0.06,,
0.352,0.05,,
0.353,0.05,,
0.354,0.06,,
0.355,0.06,,
0.356,0.07,,
0.357,0.05,,
0.358,0.01,,
0.359,-0.02,,
0.36,-0.06,,
0.361,-0.08,,
0.362,-0.12,,
0.363,-0.12,,
0.364,-0.1,,
0.365,-0.07,,
0.366,-0.06,,
0.367,-0.06,,
0.368,-0.05,,
0.369,-0.02,,
0.37,-0.04,,
0.371,0.02,,
0.372,0.03,,
0.373,0.02,,
0.374,-0.01,,
0.375,0.01,,
0.376,0.01,,
0.377,0.03,,
0.378,0.06,,
0.379,0.07,,
0.38,0.06,,
0.381,0.05,,
0.382,0.02,,
0.383,-0.01,,
0.384,-0.05,,
0.385,-0.08,,
0.386,-0.06,,
0.387,-0.05,,
0.388,-0.01,,
0.389,0.05,,
0.39,0.04,,
0.391,0.05,,
0.392,0.01,,
0.393,0,,
0.394,0.01,,
0.395,-0.03,,
0.396,-0.06,,
0.397,-0.08,,
0.398,-0.07,,
0.399,-0.11,,
0.4,-0.11,,
0.401,-0.08,,
0.402,-0.06,,
0.403,-0.03,,
0.404,-0.02,,
0.405,0.05,,
0.406,0.08,,
0.407,0.09,,
0.408,0.11,,
0.409,0.16,,
0.41,0.14,,
0.411,0.1,,
0.412,0.07,,
0.413,0.05,,
0.414,0.04,,
0.415,-0.01,,
0.416,-0.09,,
0.417,-0.11,,
0.418,-0.15,,
0.419,-0.22,,
0.42,-0.29,,
0.421,-0.33,,
0.422,-0.32,,
0.423,-0.3,,
0.424,-0.27,,
0.425,-0.17,,
0.426,0.01,,
0.427,0.1,,
0.428,0.11,,
0.429,0.17,,
0.43,0.11,,
0.431,-0.02,,
0.432,-0.13,,
0.433,-0.09,,
0.434,-0.06,,
0.435,-0.07,,
0.436,-0.12,,
0.437,-0.07,,
0.438,-0.14,,
0.439,-0.03,,
0.44,0.17,,
0.441,0.18,,
0.442,0.15,,
0.443,0.08,,
0.444,0.05,,
0.445,0.07,,
0.446,-0.07,,
0.447,-0.21,,
0.448,-0.13,,
0.449,-0.07,,
0.45,-0.18,,
0.451,-0.18,,
0.452,-0.23,,
0.453,-0.54,,
0.454,-0.63,,
0.455,-0.47,,
0.456,-0.31,,
0.457,-0.43,,
0.458,-0.46,,
0.459,-0.36,,
0.46,-0.17,,
0.461,0.38,,
0.462,0.8,,
0.463,1.08,,
0.464,0.95,,
0.465,0.64,,
0.466,0.56,,
0.467,0.41,,
0.468,0.09,,
0.469,-0.33,,
0.47,-0.46,,
0.471,-0.3,,
0.472,0,,
0.473,0.15,,
0.474,0.08,,
0.475,0.19,,
0.476,0.22,,
0.477,0.36,,
0.478,0.47,,
0.479,0.29,,
0.48,-0.11,,
0.481,-0.41,,
0.482,-0.12,,
0.483,0.18,,
0.484,-0.12,,
0.485,-0.11,,
0.486,0.05,,
0.487,0.09,,
0.488,-0.32,,
0.489,-0.51,,
0.49,-0.44,,
0.491,-0.11,,
0.492,0.14,,
0.493,0.25,,
0.494,0.33,,
0.495,0.15,,
0.496,0.08,,
0.497,0.28,,
0.498,0.3,,
0.499,0.4,,
0.5,0.45,,
0.501,0.01,,
0.502,-0.06,,
0.503,0.12,,
0.504,0.01,,
0.505,-0.18,,
0.506,-0.32,,
0.507,-0.21,,
0.508,-0.52,,
0.509,-0.21,,
0.51,0.44,,
0.511,0.49,,
0.512,0.25,,
0.513,0.2,,
0.514,-0.18,,
0.515,-0.56,,
0.516,-0.75,,
0.517,-0.11,,
0.518,-0.12,,
0.519,-0.19,,
0.52,0.11,,
0.521,0.11,,
0.522,0.17,,
0.523,0.43,,
0.524,0.59,,
0.525,0.87,,
0.526,0.53,,
0.527,0.44,,
0.528,0.15,,
0.529,0.08,,
0.53,0.14,,
0.531,0.21,,
0.532,0.3,,
0.533,-0.19,,
0.534,-0.53,,
0.535,-1,,
0.536,-0.99,,
0.537,-0.01,,
0.538,-0.11,,
0.539,0.19,,
0.54,-0.09,,
0.541,-0.08,,
0.542,0.68,,
0.543,0.66,,
0.544,0.51,,
0.545,0.53,,
0.546,0.64,,
0.547,0.17,,
0.548,0.11,,
0.549,0.03,,
0.55,-0.19,,
0.551,-0.17,,
0.552,-0.09,,
0.553,-0.01,,
0.554,-0.16,,
0.555,-0.14,,
0.556,0.1,,
0.557,0.03,,
0.558,-0.09,,
0.559,-0.28,,
0.56,-0.05,,
0.561,0,,
0.562,-0.04,,
0.563,0.03,,
0.564,-0.04,,
0.565,-0.03,,
0.566,-0.09,,
0.567,-0.04,,
0.568,-0.43,,
0.569,-0.44,,
0.57,-0.22,,
0.571,-0.08,,
0.572,-0.11,,
0.573,0.19,,
0.574,0.2,,
0.575,0.09,,
0.576,0.11,,
0.577,-0.19,,
0.578,-0.49,,
0.579,-0.04,,
0.58,0.23,,
0.581,-0.04,,
0.582,-0.13,,
0.583,0,,
0.584,-0.36,,
0.585,-0.29,,
0.586,0.26,,
0.587,-0.12,,
0.588,0.03,,
0.589,0.41,,
0.59,0.32,,
0.591,0.37,,
0.592,0.55,,
0.593,0.44,,
0.594,0.29,,
0.595,0.31,,
0.596,0.11,,
0.597,0.08,,
0.598,-0.11,,
0.599,-0.29,,
0.6,0.09,,
0.601,-0.1,,
0.602,-0.05,,
0.603,0.04,,
0.604,0.06,,
0.605,0.19,,
0.606,0.13,,
0.607,-0.01,,
0.608,-0.04,,
0.609,-0.13,,
0.61,-0.06,,
0.611,-0.02,,
0.612,-0.17,,
0.613,-0.46,,
0.614,-0.25,,
0.615,-0.06,,
0.616,0.3,,
0.617,0.51,,
0.618,0.24,,
0.619,-0.03,,
0.62,-0.23,,
0.621,0.03,,
0.622,0.12,,
0.623,-0.26,,
0.624,-0.47,,
0.625,-0.28,,
0.626,0.15,,
0.627,0.55,,
0.628,0.27,,
0.629,0.01,,
0.63,-0.11,,
0.631,-0.27,,
0.632,-0.22,,
0.633,-0.01,,
0.634,0.21,,
0.635,0.34,,
0.636,0.38,,
0.637,0.24,,
0.638,0.07,,
0.639,-0.14,,
0.64,-0.21,,
0.641,-0.1,,
0.642,-0.2,,
0.643,-0.63,,
0.644,-0.56,,
0.645,-0.35,,
0.646,-0.32,,
0.647,-0.46,,
0.648,-0.36,,
0.649,0.44,,
0.65,0.87,,
0.651,0.4,,
0.652,0.01,,
0.653,0.02,,
0.654,0.16,,
0.655,0.07,,
0.656,0.19,,
0.657,0.48,,
0.658,0.46,,
0.659,0.05,,
0.66,-0.21,,
0.661,-0.12,,
0.662,0.15,,
0.663,0.22,,
0.664,0.21,,
0.665,-0.44,,
0.666,-0.68,,
0.667,-0.13,,
0.668,-0.12,,
0.669,-0.6,,
0.67,-0.07,,
0.671,0.01,,
0.672,0.03,,
0.673,0.08,,
0.674,0.15,,
0.675,0.04,,
0.676,0.2,,
0.677,0.31,,
0.678,0.2,,
0.679,0.24,,
0.68,0.16,,
0.681,-0.05,,
0.682,-0.15,,
0.683,-0.19,,
0.684,-0.26,,
0.685,-0.3,,
0.686,-0.14,,
0.687,-0.34,,
0.688,-0.54,,
0.689,-0.52,,
0.69,-0.17,,
0.691,0.29,,
0.692,-0.4,,
0.693,-0.81,,
0.694,-0.13,,
0.695,0.35,,
0.696,0.69,,
0.697,0.59,,
0.698,0.62,,
0.699,0.74,,
0.7,1.01,,
0.701,0.56,,
0.702,0.24,,
0.703,-0.03,,
0.704,-0.17,,
0.705,-0.33,,
0.706,-0.42,,
0.707,-0.08,,
0.708,0.18,,
0.709,-0.07,,
0.71,-0.28,,
0.711,-0.21,,
0.712,-0.01,,
0.713,-0.03,,
0.714,-0.39,,
0.715,-0.53,,
0.716,-0.1,,
0.717,0.44,,
0.718,0.43,,
0.719,0.11,,
0.72,-0.04,,
0.721,0.08,,
0.722,0.43,,
0.723,0.52,,
0.724,0.04,,
0.725,-0.66,,
0.726,-0.94,,
0.727,-1.3,,
0.728,-1.32,,
0.729,-0.86,,
0.73,0.18,,
0.731,0.28,,
0.732,0.45,,
0.733,0.78,,
0.734,0.71,,
0.735,0.98,,
0.736,0.89,,
0.737,0.5,,
0.738,0.28,,
0.739,0.2,,
0.74,0.15,,
0.741,0.01,,
0.742,-0.21,,
0.743,-0.23,,
0.744,0,,
0.745,0.32,,
0.746,-0.08,,
0.747,-0.44,,
0.748,-0.54,,
0.749,-0.73,,
0.75,-0.88,,
0.751,-1.05,,
0.752,-0.53,,
0.753,0.35,,
0.754,0.46,,
0.755,0.27,,
0.756,0.19,,
0.757,0.41,,
0.758,0.54,,
0.759,0.56,,
0.76,0.36,,
0.761,0.28,,
0.762,-0.14,,
0.763,-0.12,,
0.764,0.21,,
0.765,-0.08,,
0.766,-0.3,,
0.767,0.01,,
0.768,-0.04,,
0.769,-0.09,,
0.77,0.07,,
0.771,-0.19,,
0.772,-0.35,,
0.773,-0.22,,
0.774,0.1,,
0.775,0.23,,
0.776,0.36,,
0.777,0.3,,
0.778,0.05,,
0.779,-0.03,,
0.78,-0.31,,
0.781,-0.43,,
0.782,-0.15,,
0.783,0,,
0.784,-0.23,,
0.785,-0.05,,
0.786,0.46,,
0.787,0.34,,
0.788,0.04,,
0.789,-0.13,,
0.79,-0.71,,
0.791,-0.88,,
0.792,-0.08,,
0.793,0.7,,
0.794,0.27,,
0.795,0.13,,
0.796,0.48,,
0.797,0.34,,
0.798,-0.04,,
0.799,-0.03,,
0.8,-0.04,,
0.801,0.02,,
0.802,0.09,,
0.803,0.12,,
0.804,0.07,,
0.805,0.4,,
0.806,0.04,,
0.807,-0.11,,
0.808,-0.11,,
0.809,-0.36,,
0.81,-0.45,,
0.811,-0.34,,
0.812,-0.05,,
0.813,0.17,,
0.814,-0.21,,
0.815,-0.07,,
0.816,0.2,,
0.817,0.07,,
0.818,-0.11,,
0.819,0.22,,
0.82,0.21,,
0.821,0.27,,
0.822,0.25,,
0.823,0.2,,
0.824,0.21,,
0.825,0.2,,
0.826,0.04,,
0.827,-0.03,,
0.828,-0.35,,
0.829,-0.68,,
0.83,-1.07,,
0.831,-0.94,,
0.832,-0.59,,
0.833,0.09,,
0.834,0.52,,
0.835,0.43,,
0.836,0.44,,
0.837,0.6,,
0.838,0.57,,
0.839,0.28,,
0.84,0.17,,
0.841,0.13,,
0.842,0.1,,
0.843,0.11,,
0.844,0.11,,
0.845,0.03,,
0.846,0.02,,
0.847,-0.01,,
0.848,-0.02,,
0.849,-0.05,,
0.85,-0.04,,
0.851,-0.03,,
0.852,-0.05,,
0.853,-0.13,,
0.854,-0.14,,
0.855,-0.15,,
0.856,-0.14,,
0.857,-0.16,,
0.858,-0.18,,
0.859,-0.02,,
0.86,0,,
0.861,0.01,,
0.862,0.01,,
0.863,0.02,,
0.864,-0.14,,
0.865,-0.3,,
0.866,-0.29,,
0.867,-0.21,,
0.868,-0.22,,
0.869,0,,
0.87,-0.32,,
0.871,-0.05,,
0.872,0.28,,
0.873,0.2,,
0.874,0.17,,
0.875,0.08,,
0.876,-0.04,,
0.877,-0.17,,
0.878,-0.13,,
0.879,0.3,,
0.88,0.34,,
0.881,0.25,,
0.882,0.19,,
0.883,0.13,,
0.884,0.04,,
0.885,0.06,,
0.886,0.14,,
0.887,0.23,,
0.888,0.19,,
0.889,-0.01,,
0.89,-0.12,,
0.891,-0.27,,
0.892,-0.3,,
0.893,-0.17,,
0.894,-0.27,,
0.895,-0.6,,
0.896,-0.6,,
0.897,0.2,,
0.898,0.68,,
0.899,0.09,,
0.9,-0.11,,
0.901,0.21,,
0.902,0.14,,
0.903,0.2,,
0.904,0.03,,
0.905,-0.05,,
0.906,0.03,,
0.907,-0.27,,
0.908,-0.57,,
0.909,-0.44,,
0.91,-0.3,,
0.911,0.13,,
0.912,0.86,,
0.913,0.89,,
0.914,0.27,,
0.915,-0.07,,
0.916,-0.12,,
0.917,-0.4,,
0.918,-0.5,,
0.919,-0.38,,
0.92,-0.17,,
0.921,0.11,,
0.922,0.16,,
0.923,0.29,,
0.924,0.38,,
0.925,0.57,,
0.926,0.35,,
0.927,0.12,,
0.928,0.06,,
0.929,0.01,,
0.93,0,,
0.931,-0.1,,
0.932,-0.2,,
0.933,-0.23,,
0.934,-0.16,,
0.935,-0.47,,
0.936,-0.82,,
0.937,-0.41,,
0.938,-0.47,,
0.939,-0.38,,
0.94,0.13,,
0.941,0.47,,
0.942,0.6,,
0.943,0.55,,
0.944,0.38,,
0.945,0.21,,
0.946,0.16,,
0.947,0.12,,
0.948,0.09,,
0.949,0.07,,
0.95,0.05,,
0.951,0.03,,
0.952,0.02,,
0.953,-0.01,,
0.954,-0.08,,
0.955,-0.19,,
0.956,-0.2,,
0.957,-0.19,,
0.958,-0.19,,
0.959,-0.12,,
0.96,-0.03,,
0.961,-0.02,,
0.962,-0.02,,
0.963,0.02,,
0.964,0.01,,
0.965,0.05,,
0.966,0.1,,
0.967,0.14,,
0.968,0.12,,
0.969,0.08,,
0.97,0.06,,
0.971,0.02,,
0.972,-0.01,,
0.973,-0.03,,
0.974,-0.07,,
0.975,-0.1,,
0.976,-0.1,,
0.977,-0.08,,
0.978,-0.13,,
0.979,-0.13,,
0.98,-0.13,,
0.981,-0.08,,
0.982,-0.02,,
0.983,0.01,,
0.984,0.08,,
0.985,0.12,,
0.986,0.15,,
0.987,0.11,,
0.988,0.07,,
0.989,0.02,,
0.99,0.04,,
0.991,0.06,,
0.992,0.05,,
0.993,0,,
0.994,-0.05,,
0.995,-0.1,,
0.996,-0.11,,
0.997,-0.1,,
0.998,-0.07,,
0.999,-0.06,,
1,-0.03,,
1.001,-0.05,,
1.002,-0.03,,
1.003,-0.05,,
1.004,-0.08,,
1.005,-0.13,,
1.006,-0.1,,
1.007,0,,
1.008,0.09,,
1.009,0.11,,
1.01,0.14,,
1.011,0.12,,
1.012,0.08,,
1.013,0,,
1.014,-0.02,,
1.015,-0.01,,
1.016,-0.04,,
1.017,-0.18,,
1.018,-0.3,,
1.019,-0.38,,
1.02,-0.29,,
1.021,-0.09,,
1.022,0.08,,
1.023,0.1,,
1.024,0.19,,
1.025,0.24,,
1.026,0.11,,
1.027,0.02,,
1.028,-0.06,,
1.029,-0.13,,
1.03,-0.15,,
1.031,-0.13,,
1.032,0.02,,
1.033,0.06,,
1.034,0,,
1.035,0.06,,
1.036,-0.13,,
1.037,-0.32,,
1.038,-0.37,,
1.039,-0.13,,
1.04,0.05,,
1.041,-0.04,,
1.042,-0.21,,
1.043,-0.2,,
1.044,-0.21,,
1.045,-0.14,,
1.046,0.01,,
1.047,0.08,,
1.048,0.12,,
1.049,0.05,,
1.05,-0.05,,
1.051,-0.2,,
1.052,-0.15,,
1.053,-0.04,,
1.054,0.06,,
1.055,0.15,,
1.056,0.22,,
1.057,0.29,,
1.058,0.32,,
1.059,0.23,,
1.06,0.18,,
1.061,0.04,,
1.062,-0.02,,
1.063,-0.07,,
1.064,-0.11,,
1.065,-0.04,,
1.066,-0.09,,
1.067,-0.07,,
1.068,0,,
1.069,-0.03,,
1.07,-0.15,,
1.071,-0.25,,
1.072,-0.15,,
1.073,-0.07,,
1.074,0.08,,
1.075,0.16,,
1.076,0.16,,
1.077,0.12,,
1.078,-0.01,,
1.079,-0.1,,
1.08,-0.08,,
1.081,0.02,,
1.082,0.04,,
1.083,0.1,,
1.084,0.07,,
1.085,0.07,,
1.086,0.07,,
1.087,0.07,,
1.088,0.08,,
1.089,0.09,,
1.09,0.07,,
1.091,0.05,,
1.092,0.04,,
1.093,0.04,,
1.094,0,,
1.095,0,,
1.096,-0.02,,
1.097,-0.04,,
1.098,-0.07,,
1.099,-0.07,,
1.1,-0.08,,
1.101,-0.09,,
1.102,-0.11,,
1.103,-0.06,,
1.104,0,,
1.105,0.05,,
1.106,0.04,,
1.107,0.05,,
1.108,0.04,,
1.109,0.02,,
1.11,-0.02,,
1.111,-0.06,,
1.112,-0.02,,
1.113,0.09,,
1.114,0.12,,
1.115,0.07,,
1.116,0.02,,
1.117,0.01,,
1.118,-0.03,,
1.119,-0.06,,
1.12,-0.09,,
1.121,-0.09,,
1.122,-0.1,,
1.123,-0.1,,
1.124,-0.07,,
1.125,0,,
1.126,0.07,,
1.127,0.17,,
1.128,0.17,,
1.129,0.09,,
1.13,0,,
1.131,0,,
1.132,-0.02,,
1.133,0,,
1.134,0.04,,
1.135,0.02,,
1.136,-0.05,,
1.137,-0.07,,
1.138,-0.08,,
1.139,-0.09,,
1.14,-0.1,,
1.141,-0.11,,
1.142,-0.1,,
1.143,-0.11,,
1.144,-0.08,,
1.145,-0.03,,
1.146,0.01,,
1.147,0.05,,
1.148,0.06,,
1.149,0.03,,
1.15,0.06,,
1.151,0.05,,
1.152,0.04,,
1.153,0.02,,
1.154,0,,
1.155,0.01,,
1.156,0,,
1.157,-0.01,,
1.158,-0.04,,
1.159,-0.07,,
1.16,-0.11,,
1.161,-0.12,,
1.162,-0.12,,
1.163,-0.08,,
1.164,-0.05,,
1.165,0,,
1.166,0,,
1.167,0.05,,
1.168,0.11,,
1.169,0.06,,
1.17,0.02,,
1.171,0.01,,
1.172,0.02,,
1.173,0.02,,
1.174,0.05,,
1.175,0,,
1.176,0.03,,
1.177,-0.03,,
1.178,-0.03,,
1.179,-0.06,,
1.18,-0.08,,
1.181,-0.1,,
1.182,-0.13,,
1.183,-0.07,,
1.184,-0.06,,
1.185,-0.03,,
1.186,0.02,,
1.187,0.06,,
1.188,0.08,,
1.189,0.09,,
1.19,0.08,,
1.191,0.07,,
1.192,0.07,,
1.193,0.06,,
1.194,0.05,,
1.195,0.03,,
1.196,0.02,,
1.197,0,,
1.198,-0.01,,
1.199,-0.04,,
1.2,-0.07,,
1.201,-0.1,,
1.202,-0.1,,
1.203,-0.11,,
1.204,-0.11,,
1.205,-0.07,,
1.206,-0.04,,
1.207,0,,
1.208,0.04,,
1.209,0.06,,
1.21,0.06,,
1.211,0.07,,
1.212,0.08,,
1.213,0.08,,
1.214,0.06,,
1.215,0.04,,
1.216,0.05,,
1.217,0.02,,
1.218,-0.01,,
1.219,-0.03,,
1.22,-0.05,,
1.221,-0.07,,
1.222,-0.07,,
1.223,-0.07,,
1.224,-0.07,,
1.225,-0.05,,
1.226,-0.03,,
1.227,0.01,,
1.228,0.03,,
1.229,0.05,,
1.23,0.06,,
1.231,0.07,,
1.232,0.07,,
1.233,0.09,,
1.234,0.07,,
1.235,0.05,,
1.236,0.04,,
1.237,0.02,,
1.238,0.01,,
1.239,-0.02,,
1.24,-0.01,,
1.241,-0.03,,
1.242,-0.07,,
1.243,-0.11,,
1.244,-0.13,,
1.245,-0.09,,
1.246,-0.06,,
1.247,-0.03,,
1.248,0.03,,
1.249,0.02,,
1.25,0.05,,
1.251,0.07,,
1.252,0.08,,
1.253,0.07,,
1.254,0.09,,
1.255,0.07,,
1.256,0.04,,
1.257,0.02,,
1.258,0.02,,
1.259,-0.01,,
1.26,-0.03,,
1.261,-0.06,,
1.262,-0.09,,
1.263,-0.1,,
1.264,-0.11,,
1.265,-0.09,,
1.266,-0.08,,
1.267,-0.05,,
1.268,0,,
1.269,0.02,,
1.27,0.06,,
1.271,0.09,,
1.272,0.05,,
1.273,0.06,,
1.274,0.05,,
1.275,0.06,,
1.276,0.06,,
1.277,0.03,,
1.278,0.04,,
1.279,0,,
1.28,-0.03,,
1.281,-0.06,,
1.282,-0.06,,
1.283,-0.09,,
1.284,-0.08,,
1.285,-0.12,,
1.286,-0.05,,
1.287,-0.03,,
1.288,0,,
1.289,0.02,,
1.29,0.03,,
1.291,0.04,,
1.292,0.04,,
1.293,0.08,,
1.294,0.08,,
1.295,0.07,,
1.296,0.07,,
1.297,0.02,,
1.298,0.01,,
1.299,0,,
1.3,-0.01,,
1.301,-0.03,,
1.302,-0.04,,
1.303,-0.1,,
1.304,-0.11,,
1.305,-0.09,,
1.306,-0.09,,
1.307,-0.05,,
1.308,-0.04,,
1.309,0,,
1.31,0.02,,
1.311,0.05,,
1.312,0.06,,
1.313,0.06,,
1.314,0.09,,
1.315,0.06,,
1.316,0.05,,
1.317,0.03,,
1.318,0.03,,
1.319,0.03,,
1.32,0,,
1.321,-0.02,,
1.322,-0.03,,
1.323,-0.09,,
1.324,-0.11,,
1.325,-0.1,,
1.326,-0.07,,
1.327,-0.07,,
1.328,-0.05,,
1.329,-0.01,,
1.33,0.01,,
1.331,0.06,,
1.332,0.05,,
1.333,0.07,,
1.334,0.07,,
1.335,0.05,,
1.336,0.05,,
1.337,0.05,,
1.338,0.06,,
1.339,0.03,,
1.34,0.02,,
1.341,-0.01,,
1.342,-0.05,,
1.343,-0.07,,
1.344,-0.09,,
1.345,-0.1,,
1.346,-0.09,,
1.347,-0.07,,
1.348,-0.06,,
1.349,-0.05,,
1.35,-0.01,,
1.351,0.01,,
1.352,0.06,,
1.353,0.07,,
1.354,0.08,,
1.355,0.07,,
1.356,0.05,,
1.357,0.04,,
1.358,0.05,,
1.359,0.05,,
1.36,0.01,,
1.361,-0.01,,
1.362,-0.03,,
1.363,-0.06,,
1.364,-0.09,,
1.365,-0.11,,
1.366,-0.11,,
1.367,-0.1,,
1.368,-0.08,,
1.369,-0.03,,
1.37,0,,
1.371,0.05,,
1.372,0.03,,
1.373,0.04,,
1.374,0.06,,
1.375,0.06,,
1.376,0.06,,
1.377,0.04,,
1.378,0.04,,
1.379,0.06,,
1.38,0.04,,
1.381,0.02,,
1.382,0,,
1.383,-0.02,,
1.384,-0.06,,
1.385,-0.09,,
1.386,-0.09,,
1.387,-0.09,,
1.388,-0.09,,
1.389,-0.06,,
1.39,-0.04,,
1.391,0,,
1.392,0.03,,
1.393,0.05,,
1.394,0.06,,
1.395,0.06,,
1.396,0.07,,
1.397,0.03,,
1.398,0.04,,
1.399,0.06,,
1.4,0.05,,
1.401,0.04,,
1.402,0.02,,
1.403,-0.01,,
1.404,-0.05,,
1.405,-0.07,,
1.406,-0.11,,
1.407,-0.13,,
1.408,-0.1,,
1.409,-0.1,,
1.41,-0.06,,
1.411,-0.01,,
1.412,0,,
1.413,0.03,,
1.414,0.05,,
1.415,0.06,,
1.416,0.05,,
1.417,0.06,,
1.418,0.07,,
1.419,0.05,,
1.42,0.03,,
1.421,0.02,,
1.422,0.01,,
1.423,-0.02,,
1.424,-0.04,,
1.425,-0.06,,
1.426,-0.1,,
1.427,-0.12,,
1.428,-0.11,,
1.429,-0.1,,
1.43,-0.08,,
1.431,-0.05,,
1.432,0,,
1.433,0.01,,
1.434,0.03,,
1.435,0.05,,
1.436,0.09,,
1.437,0.07,,
1.438,0.07,,
1.439,0.06,,
1.44,0.05,,
1.441,0.05,,
1.442,0.03,,
1.443,0.03,,
1.444,0.02,,
1.445,-0.04,,
1.446,-0.05,,
1.447,-0.09,,
1.448,-0.09,,
1.449,-0.09,,
1.45,-0.08,,
1.451,-0.05,,
1.452,-0.02,,
1.453,0.01,,
1.454,0.06,,
1.455,0.08,,
1.456,0.06,,
1.457,0.06,,
1.458,0.05,,
1.459,0.05,,
1.46,0.05,,
1.461,0.03,,
1.462,0.03,,
1.463,0.01,,
1.464,-0.03,,
1.465,-0.05,,
1.466,-0.08,,
1.467,-0.1,,
1.468,-0.09,,
1.469,-0.1,,
1.47,-0.1,,
1.471,-0.05,,
1.472,-0.03,,
1.473,0,,
1.474,0.03,,
1.475,0.06,,
1.476,0.05,,
1.477,0.07,,
1.478,0.08,,
1.479,0.07,,
1.48,0.05,,
1.481,0.03,,
1.482,0.02,,
1.483,0,,
1.484,0,,
1.485,-0.02,,
1.486,-0.03,,
1.487,-0.07,,
1.488,-0.1,,
1.489,-0.11,,
1.49,-0.1,,
1.491,-0.08,,
1.492,-0.06,,
1.493,-0.02,,
1.494,0,,
1.495,0.03,,
1.496,0.05,,
1.497,0.07,,
1.498,0.06,,
1.499,0.06,,
1.5,0.07,,
1.501,0.05,,
1.502,0.03,,
1.503,0,,
1.504,0,,
1.505,-0.02,,
1.506,-0.05,,
1.507,-0.04,,
1.508,-0.09,,
1.509,-0.11,,
1.51,-0.08,,
1.511,-0.09,,
1.512,-0.06,,
1.513,0.01,,
1.514,0,,
1.515,0.04,,
1.516,0.05,,
1.517,0.04,,
1.518,0.07,,
1.519,0.06,,
1.52,0.04,,
1.521,0.03,,
1.522,0.03,,
1.523,0.03,,
1.524,0.01,,
1.525,0,,
1.526,-0.01,,
1.527,-0.04,,
1.528,-0.08,,
1.529,-0.1,,
1.53,-0.08,,
1.531,-0.11,,
1.532,-0.09,,
1.533,-0.05,,
1.534,-0.03,,
1.535,0.02,,
1.536,0.05,,
1.537,0.08,,
1.538,0.06,,
1.539,0.09,,
1.54,0.09,,
1.541,0.05,,
1.542,0.05,,
1.543,0.03,,
1.544,0.02,,
1.545,0,,
1.546,0,,
1.547,-0.03,,
1.548,-0.08,,
1.549,-0.11,,
1.55,-0.11,,
1.551,-0.1,,
1.552,-0.08,,
1.553,-0.04,,
1.554,-0.04,,
1.555,0.02,,
1.556,0.06,,
1.557,0.07,,
1.558,0.07,,
1.559,0.07,,
1.56,0.07,,
1.561,0.08,,
1.562,0.05,,
1.563,0.03,,
1.564,0.02,,
1.565,0.03,,
1.566,-0.01,,
1.567,-0.07,,
1.568,-0.11,,
1.569,-0.16,,
1.57,-0.16,,
1.571,-0.2,,
1.572,-0.18,,
1.573,-0.17,,
1.574,-0.12,,
1.575,-0.06,,
1.576,0.01,,
1.577,0.06,,
1.578,0.13,,
1.579,0.17,,
1.58,0.21,,
1.581,0.21,,
1.582,0.19,,
1.583,0.15,,
1.584,0.1,,
1.585,0.07,,
1.586,0.06,,
1.587,0,,
1.588,-0.01,,
1.589,-0.08,,
1.59,-0.08,,
1.591,-0.1,,
1.592,-0.12,,
1.593,-0.11,,
1.594,-0.11,,
1.595,-0.08,,
1.596,-0.07,,
1.597,-0.1,,
1.598,-0.12,,
1.599,-0.13,,
1.6,-0.15,,
1.601,-0.15,,
1.602,-0.12,,
1.603,-0.1,,
1.604,-0.05,,
1.605,-0.02,,
1.606,0.03,,
1.607,0.09,,
1.608,0.15,,
1.609,0.17,,
1.61,0.2,,
1.611,0.17,,
1.612,0.04,,
1.613,-0.01,,
1.614,-0.01,,
1.615,0.02,,
1.616,0.03,,
1.617,0.04,,
1.618,0.05,,
1.619,0.07,,
1.62,0.07,,
1.621,0.06,,
1.622,0.06,,
1.623,0.03,,
1.624,0.02,,
1.625,-0.01,,
1.626,0.01,,
1.627,0.01,,
1.628,-0.07,,
1.629,-0.18,,
1.63,-0.22,,
1.631,-0.3,,
1.632,-0.33,,
1.633,-0.34,,
1.634,-0.32,,
1.635,-0.23,,
1.636,-0.13,,
1.637,-0.11,,
1.638,-0.13,,
1.639,-0.09,,
1.64,-0.03,,
1.641,0.05,,
1.642,0.21,,
1.643,0.26,,
1.644,0.23,,
1.645,0.32,,
1.646,0.42,,
1.647,0.39,,
1.648,0.29,,
1.649,0.21,,
1.65,0.22,,
1.651,0.14,,
1.652,0.03,,
1.653,-0.13,,
1.654,-0.43,,
1.655,-0.66,,
1.656,-0.8,,
1.657,-0.79,,
1.658,-0.75,,
1.659,-0.45,,
1.66,-0.18,,
1.661,-0.09,,
1.662,-0.12,,
1.663,0.16,,
1.664,0.64,,
1.665,0.95,,
1.666,0.98,,
1.667,0.91,,
1.668,0.69,,
1.669,0.43,,
1.67,0.2,,
1.671,-0.1,,
1.672,-0.28,,
1.673,-0.36,,
1.674,-0.48,,
1.675,-0.54,,
1.676,-0.49,,
1.677,-0.19,,
1.678,0,,
1.679,-0.27,,
1.68,-0.38,,
1.681,-0.26,,
1.682,0.19,,
1.683,0.49,,
1.684,0.48,,
1.685,0.54,,
1.686,0.64,,
1.687,0.44,,
1.688,0.14,,
1.689,-0.03,,
1.69,-0.04,,
1.691,-0.14,,
1.692,-0.17,,
1.693,-0.33,,
1.694,-0.29,,
1.695,-0.22,,
1.696,-0.29,,
1.697,-0.22,,
1.698,0.02,,
1.699,0.16,,
1.7,-0.13,,
1.701,-0.27,,
1.702,-0.4,,
1.703,-0.56,,
1.704,-0.76,,
1.705,-0.96,,
1.706,-0.64,,
1.707,0.14,,
1.708,0.59,,
1.709,0.82,,
1.71,0.99,,
1.711,0.96,,
1.712,1.1,,
1.713,1.22,,
1.714,1.09,,
1.715,0.6,,
1.716,-0.16,,
1.717,-0.31,,
1.718,0.08,,
1.719,0.23,,
1.72,0.25,,
1.721,0,,
1.722,0.06,,
1.723,0.11,,
1.724,-0.18,,
1.725,-0.19,,
1.726,-0.15,,
1.727,0.22,,
1.728,0.39,,
1.729,0.28,,
1.73,0.43,,
1.731,0,,
1.732,-0.49,,
1.733,-0.68,,
1.734,-0.39,,
1.735,-0.14,,
1.736,-0.36,,
1.737,-0.43,,
1.738,-0.09,,
1.739,0.03,,
1.74,0.24,,
1.741,0.15,,
1.742,-0.59,,
1.743,-0.69,,
1.744,-0.65,,
1.745,-0.64,,
1.746,-0.16,,
1.747,0.08,,
1.748,0.04,,
1.749,0.56,,
1.75,0.74,,
1.751,0.94,,
1.752,0.94,,
1.753,0.85,,
1.754,0.3,,
1.755,-0.22,,
1.756,-0.23,,
1.757,-0.18,,
1.758,0.06,,
1.759,0.06,,
1.76,0.09,,
1.761,0.25,,
1.762,0.25,,
1.763,0.12,,
1.764,0.06,,
1.765,-0.01,,
1.766,-0.14,,
1.767,-0.19,,
1.768,0.05,,
1.769,0.07,,
1.77,0.05,,
1.771,-0.02,,
1.772,-0.01,,
1.773,0.12,,
1.774,0.15,,
1.775,-0.04,,
1.776,-0.1,,
1.777,-0.16,,
1.778,-0.15,,
1.779,-0.28,,
1.78,-0.36,,
1.781,-0.24,,
1.782,-0.13,,
1.783,-0.22,,
1.784,-0.1,,
1.785,-0.2,,
1.786,-0.24,,
1.787,-0.13,,
1.788,0.08,,
1.789,0.06,,
1.79,-0.1,,
1.791,0.15,,
1.792,0.03,,
1.793,-0.17,,
1.794,-0.52,,
1.795,-0.09,,
1.796,-0.11,,
1.797,-0.03,,
1.798,0.15,,
1.799,0.23,,
1.8,0.25,,
1.801,0.33,,
1.802,0.52,,
1.803,0.26,,
1.804,0.27,,
1.805,0.39,,
1.806,0.39,,
1.807,-0.08,,
1.808,-0.18,,
1.809,-0.31,,
1.81,-0.22,,
1.811,0.02,,
1.812,0.09,,
1.813,0.09,,
1.814,-0.1,,
1.815,-0.14,,
1.816,0.18,,
1.817,0.53,,
1.818,0.18,,
1.819,-0.1,,
1.82,-0.13,,
1.821,-0.26,,
1.822,-0.35,,
1.823,-0.29,,
1.824,-0.04,,
1.825,-0.1,,
1.826,0.11,,
1.827,0.26,,
1.828,0.1,,
1.829,0.08,,
1.83,-0.1,,
1.831,-0.43,,
1.832,-0.56,,
1.833,-0.08,,
1.834,0.15,,
1.835,0.18,,
1.836,0.07,,
1.837,0.02,,
1.838,-0.13,,
1.839,-0.23,,
1.84,-0.01,,
1.841,0.51,,
1.842,0.42,,
1.843,0.18,,
1.844,0.26,,
1.845,0.19,,
1.846,-0.13,,
1.847,-0.22,,
1.848,-0.2,,
1.849,-0.42,,
1.85,-0.69,,
1.851,-0.46,,
1.852,0.06,,
1.853,0.52,,
1.854,0.75,,
1.855,0.5,,
1.856,0.29,,
1.857,0.24,,
1.858,0.12,,
1.859,-0.28,,
1.86,-0.46,,
1.861,-0.22,,
1.862,0.09,,
1.863,0.21,,
1.864,0.27,,
1.865,0.09,,
1.866,-0.1,,
1.867,-0.23,,
1.868,-0.26,,
1.869,-0.14,,
1.87,-0.18,,
1.871,-0.08,,
1.872,0.09,,
1.873,0.15,,
1.874,0.07,,
1.875,0.05,,
1.876,0.21,,
1.877,0.14,,
1.878,0.17,,
1.879,0.1,,
1.88,0.15,,
1.881,0.05,,
1.882,-0.08,,
1.883,-0.12,,
1.884,-0.25,,
1.885,-0.09,,
1.886,0.06,,
1.887,0.16,,
1.888,0.23,,
1.889,-0.18,,
1.89,-0.52,,
1.891,-0.46,,
1.892,-0.16,,
1.893,-0.38,,
1.894,-0.37,,
1.895,0.08,,
1.896,0.12,,
1.897,0.23,,
1.898,0.26,,
1.899,0.08,,
1.9,-0.1,,
1.901,-0.15,,
1.902,0.09,,
1.903,0.15,,
1.904,0.18,,
1.905,0,,
1.906,0.07,,
1.907,0.15,,
1.908,0.21,,
1.909,0.07,,
1.91,0.05,,
1.911,0.11,,
1.912,0.12,,
1.913,0.21,,
1.914,0.08,,
1.915,-0.22,,
1.916,-0.28,,
1.917,-0.11,,
1.918,0.11,,
1.919,-0.14,,
1.92,-0.24,,
1.921,-0.15,,
1.922,0.11,,
1.923,0.27,,
1.924,0.4,,
1.925,0.04,,
1.926,-0.1,,
1.927,-0.08,,
1.928,-0.23,,
1.929,-0.34,,
1.93,-0.47,,
1.931,-0.52,,
1.932,-0.58,,
1.933,-0.25,,
1.934,-0.27,,
1.935,-0.37,,
1.936,-0.12,,
1.937,0.29,,
1.938,0.46,,
1.939,0.26,,
1.94,0.18,,
1.941,0.52,,
1.942,0.45,,
1.943,0.34,,
1.944,0.21,,
1.945,0.11,,
1.946,0.1,,
1.947,0.11,,
1.948,-0.2,,
1.949,0.06,,
1.95,0.14,,
1.951,0.12,,
1.952,0.36,,
1.953,0.32,,
1.954,0.14,,
1.955,-0.07,,
1.956,-0.13,,
1.957,-0.23,,
1.958,-0.19,,
1.959,-0.06,,
1.96,-0.1,,
1.961,0.04,,
1.962,-0.01,,
1.963,0.05,,
1.964,0.16,,
1.965,-0.02,,
1.966,-0.18,,
1.967,-0.1,,
1.968,-0.19,,
1.969,-0.31,,
1.97,-0.41,,
1.971,-0.07,,
1.972,-0.09,,
1.973,-0.28,,
1.974,-0.08,,
1.975,0.34,,
1.976,0.31,,
1.977,0.16,,
1.978,-0.02,,
1.979,-0.11,,
1.98,-0.19,,
1.981,0.05,,
1.982,0.3,,
1.983,0.16,,
1.984,-0.02,,
1.985,0.04,,
1.986,-0.1,,
1.987,-0.11,,
1.988,-0.34,,
1.989,-0.17,,
1.99,0.06,,
1.991,0.05,,
1.992,-0.31,,
1.993,-0.23,,
1.994,-0.29,,
1.995,-0.17,,
1.996,0.45,,
1.997,0.59,,
1.998,0.14,,
1.999,0.03,,
2,0.11,,
2.001,0.22,,
2.002,0.12,,
2.003,0.02,,
2.004,0.06,,
2.005,-0.03,,
2.006,-0.15,,
2.007,-0.03,,
2.008,0.06,,
2.009,0.02,,
2.01,-0.09,,
2.011,-0.23,,
2.012,-0.14,,
2.013,0.31,,
2.014,0.1,,
2.015,-0.11,,
2.016,-0.16,,
2.017,-0.29,,
2.018,-0.19,,
2.019,0.13,,
2.02,0.17,,
2.021,-0.28,,
2.022,-0.55,,
2.023,-0.28,,
2.024,0.23,,
2.025,0.19,,
2.026,-0.12,,
2.027,-0.01,,
2.028,0.4,,
2.029,0.51,,
2.03,0.51,,
2.031,0.09,,
2.032,-0.04,,
2.033,-0.06,,
2.034,-0.03,,
2.035,0.03,,
2.036,-0.2,,
2.037,-0.2,,
2.038,-0.3,,
2.039,-0.61,,
2.04,-0.38,,
2.041,0.26,,
2.042,0.28,,
2.043,0,,
2.044,-0.01,,
2.045,0.08,,
2.046,0.03,,
2.047,-0.2,,
2.048,0,,
2.049,0.47,,
2.05,0.44,,
2.051,0.26,,
2.052,-0.08,,
2.053,-0.06,,
2.054,0.2,,
2.055,0,,
2.056,-0.22,,
2.057,-0.03,,
2.058,0.17,,
2.059,0.11,,
2.06,-0.02,,
2.061,-0.43,,
2.062,-0.41,,
2.063,-0.47,,
2.064,-0.62,,
2.065,-0.54,,
2.066,-0.44,,
2.067,-0.27,,
2.068,0.18,,
2.069,0.47,,
2.07,0.83,,
2.071,0.64,,
2.072,0.54,,
2.073,0.31,,
2.074,0,,
2.075,-0.04,,
2.076,-0.1,,
2.077,-0.2,,
2.078,-0.11,,
2.079,-0.08,,
2.08,-0.23,,
2.081,-0.37,,
2.082,-0.07,,
2.083,0.17,,
2.084,0.1,,
2.085,-0.13,,
2.086,0.09,,
2.087,0.24,,
2.088,0.32,,
2.089,0.23,,
2.09,0.07,,
2.091,0.03,,
2.092,0.02,,
2.093,0,,
2.094,-0.05,,
2.095,-0.15,,
2.096,-0.21,,
2.097,-0.04,,
2.098,-0.05,,
2.099,-0.28,,
2.1,-0.05,,
2.101,0.07,,
2.102,0.09,,
2.103,-0.06,,
2.104,-0.1,,
2.105,-0.03,,
2.106,-0.13,,
2.107,-0.1,,
2.108,-0.24,,
2.109,-0.22,,
2.11,-0.19,,
2.111,-0.32,,
2.112,-0.3,,
2.113,-0.54,,
2.114,-0.32,,
2.115,-0.13,,
2.116,0.07,,
2.117,0.49,,
2.118,0.6,,
2.119,0.75,,
2.12,0.62,,
2.121,0.43,,
2.122,0.25,,
2.123,0.08,,
2.124,-0.07,,
2.125,-0.16,,
2.126,-0.16,,
2.127,-0.07,,
2.128,-0.04,,
2.129,-0.12,,
2.13,-0.06,,
2.131,0,,
2.132,0.18,,
2.133,0.07,,
2.134,0,,
2.135,-0.02,,
2.136,0.1,,
2.137,0.12,,
2.138,0.09,,
2.139,-0.04,,
2.14,-0.23,,
2.141,-0.26,,
2.142,-0.16,,
2.143,-0.07,,
2.144,-0.12,,
2.145,-0.31,,
2.146,-0.43,,
2.147,-0.36,,
2.148,0,,
2.149,0.11,,
2.15,0.19,,
2.151,0.25,,
2.152,0.31,,
2.153,0.27,,
2.154,0.19,,
2.155,0.14,,
2.156,0.21,,
2.157,0.16,,
2.158,-0.01,,
2.159,-0.15,,
2.16,-0.09,,
2.161,-0.03,,
2.162,-0.23,,
2.163,-0.28,,
2.164,-0.06,,
2.165,-0.06,,
2.166,-0.14,,
2.167,-0.23,,
2.168,-0.21,,
2.169,-0.2,,
2.17,-0.26,,
2.171,-0.26,,
2.172,0.05,,
2.173,0.33,,
2.174,0.48,,
2.175,0.48,,
2.176,0.49,,
2.177,0.09,,
2.178,0.1,,
2.179,0.16,,
2.18,0.1,,
2.181,-0.03,,
2.182,-0.22,,
2.183,-0.26,,
2.184,-0.11,,
2.185,-0.02,,
2.186,0.04,,
2.187,-0.09,,
2.188,-0.19,,
2.189,-0.16,,
2.19,-0.18,,
2.191,-0.08,,
2.192,-0.02,,
2.193,0.06,,
2.194,0.09,,
2.195,0.11,,
2.196,0.2,,
2.197,0.29,,
2.198,0.15,,
2.199,0.06,,
2.2,0.11,,
2.201,0.07,,
2.202,0.04,,
2.203,-0.08,,
2.204,-0.22,,
2.205,-0.25,,
2.206,-0.18,,
2.207,-0.04,,
2.208,0.04,,
2.209,0,,
2.21,0,,
2.211,0.02,,
2.212,0.05,,
2.213,0.1,,
2.214,0.06,,
2.215,0.06,,
2.216,0.02,,
2.217,0.05,,
2.218,0.03,,
2.219,0,,
2.22,-0.01,,
2.221,0.04,,
2.222,0.03,,
2.223,-0.05,,
2.224,-0.07,,
2.225,-0.1,,
2.226,-0.09,,
2.227,-0.08,,
2.228,-0.07,,
2.229,-0.07,,
2.23,-0.05,,
2.231,0.03,,
2.232,0.05,,
2.233,0.06,,
2.234,0.04,,
2.235,0,,
2.236,0,,
2.237,-0.01,,
2.238,-0.03,,
2.239,-0.01,,
2.24,0.02,,
2.241,0.02,,
2.242,0,,
2.243,-0.01,,
2.244,-0.02,,
2.245,-0.01,,
2.246,-0.06,,
2.247,-0.09,,
2.248,-0.11,,
2.249,-0.11,,
2.25,-0.12,,
2.251,-0.12,,
2.252,-0.12,,
2.253,-0.14,,
2.254,-0.18,,
2.255,0,,
2.256,0.12,,
2.257,0.19,,
2.258,0.18,,
2.259,0.12,,
2.26,0.05,,
2.261,-0.1,,
2.262,-0.12,,
2.263,0.18,,
2.264,0.26,,
2.265,0.16,,
2.266,0.02,,
2.267,0,,
2.268,-0.05,,
2.269,-0.08,,
2.27,-0.04,,
2.271,0,,
2.272,0,,
2.273,0.01,,
2.274,0.01,,
2.275,0,,
2.276,0.03,,
2.277,0.01,,
2.278,0,,
2.279,0.04,,
2.28,0.08,,
2.281,0.11,,
2.282,0.06,,
2.283,0,,
2.284,-0.11,,
2.285,-0.14,,
2.286,-0.12,,
2.287,-0.2,,
2.288,-0.18,,
2.289,-0.02,,
2.29,-0.06,,
2.291,-0.08,,
2.292,-0.07,,
2.293,0.06,,
2.294,0.19,,
2.295,0.18,,
2.296,0.11,,
2.297,0.08,,
2.298,0.01,,
2.299,-0.04,,
2.3,-0.07,,
2.301,-0.05,,
2.302,-0.08,,
2.303,-0.08,,
2.304,-0.04,,
2.305,-0.07,,
2.306,-0.08,,
2.307,-0.17,,
2.308,-0.25,,
2.309,-0.21,,
2.31,-0.01,,
2.311,0.1,,
2.312,0.08,,
2.313,0.09,,
2.314,0,,
2.315,0.04,,
2.316,0.18,,
2.317,0.17,,
2.318,0.13,,
2.319,0.14,,
2.32,0.11,,
2.321,0.02,,
2.322,-0.11,,
2.323,-0.22,,
2.324,-0.3,,
2.325,-0.25,,
2.326,0.08,,
2.327,0.12,,
2.328,-0.06,,
2.329,-0.16,,
2.33,-0.1,,
2.331,-0.01,,
2.332,0.07,,
2.333,0.07,,
2.334,0.03,,
2.335,-0.03,,
2.336,-0.2,,
2.337,-0.2,,
2.338,0.01,,
2.339,0.05,,
2.34,-0.01,,
2.341,0.02,,
2.342,0.06,,
2.343,0.2,,
2.344,0.03,,
2.345,-0.16,,
2.346,-0.25,,
2.347,-0.28,,
2.348,-0.25,,
2.349,-0.07,,
2.35,0.13,,
2.351,0.08,,
2.352,0.04,,
2.353,0.03,,
2.354,0,,
2.355,0.05,,
2.356,0.05,,
2.357,0,,
2.358,0,,
2.359,0,,
2.36,0.06,,
2.361,-0.09,,
2.362,-0.28,,
2.363,-0.45,,
2.364,-0.5,,
2.365,-0.45,,
2.366,-0.27,,
2.367,0.17,,
2.368,0.32,,
2.369,0.05,,
2.37,-0.11,,
2.371,-0.27,,
2.372,-0.27,,
2.373,-0.1,,
2.374,0.13,,
2.375,0.34,,
2.376,0.5,,
2.377,0.43,,
2.378,0.43,,
2.379,0.34,,
2.38,0.29,,
2.381,0.22,,
2.382,0.13,,
2.383,0.07,,
2.384,0.01,,
2.385,-0.01,,
2.386,-0.04,,
2.387,-0.1,,
2.388,-0.12,,
2.389,-0.15,,
2.39,-0.08,,
2.391,-0.01,,
2.392,-0.05,,
2.393,-0.13,,
2.394,-0.21,,
2.395,-0.29,,
2.396,-0.37,,
2.397,-0.32,,
2.398,-0.18,,
2.399,-0.3,,
2.4,-0.25,,
2.401,0.04,,
2.402,0.27,,
2.403,0.32,,
2.404,0.35,,
2.405,0.22,,
2.406,0.2,,
2.407,0.22,,
2.408,0.15,,
2.409,0,,
2.41,-0.14,,
2.411,-0.11,,
2.412,-0.02,,
2.413,0,,
2.414,0.01,,
2.415,0.04,,
2.416,0.07,,
2.417,0.1,,
2.418,0.13,,
2.419,0.17,,
2.42,0.14,,
2.421,0.11,,
2.422,0.05,,
2.423,-0.04,,
2.424,-0.15,,
2.425,-0.33,,
2.426,-0.36,,
2.427,-0.29,,
2.428,-0.14,,
2.429,-0.16,,
2.43,-0.19,,
2.431,-0.16,,
2.432,0,,
2.433,0.06,,
2.434,0.16,,
2.435,0.16,,
2.436,0.13,,
2.437,0.16,,
2.438,0.17,,
2.439,0.02,,
2.44,0.06,,
2.441,0.19,,
2.442,0.12,,
2.443,0,,
2.444,0.05,,
2.445,0.12,,
2.446,0.2,,
2.447,0.21,,
2.448,0.11,,
2.449,-0.01,,
2.45,-0.09,,
2.451,-0.12,,
2.452,-0.09,,
2.453,-0.01,,
2.454,0.05,,
2.455,0.07,,
2.456,0.05,,
2.457,0.05,,
2.458,0.09,,
2.459,0.08,,
2.46,0.12,,
2.461,0.14,,
2.462,0.12,,
2.463,0.08,,
2.464,0.07,,
2.465,0.04,,
2.466,0.04,,
2.467,0.04,,
2.468,0.05,,
2.469,0.01,,
2.47,-0.06,,
2.471,-0.11,,
2.472,-0.12,,
2.473,-0.11,,
2.474,-0.07,,
2.475,-0.03,,
2.476,0.01,,
2.477,0,,
2.478,0.05,,
2.479,0.07,,
2.48,0.1,,
2.481,0.12,,
2.482,0.09,,
2.483,0.06,,
2.484,0.04,,
2.485,0.07,,
2.486,0.02,,
2.487,0,,
2.488,-0.01,,
2.489,-0.02,,
2.49,-0.07,,
2.491,-0.06,,
2.492,-0.06,,
2.493,-0.08,,
2.494,-0.07,,
2.495,-0.09,,
2.496,-0.07,,
2.497,-0.04,,
2.498,0,,
2.499,0.06,,
2.5,0.08,,
2.501,0.05,,
2.502,0.05,,
2.503,0.05,,
2.504,0.05,,
2.505,0.04,,
2.506,0,,
2.507,0,,
2.508,-0.01,,
2.509,-0.01,,
2.51,-0.03,,
2.511,-0.07,,
2.512,-0.07,,
2.513,-0.07,,
2.514,-0.08,,
2.515,-0.08,,
2.516,-0.03,,
2.517,0.02,,
2.518,0.07,,
2.519,0.1,,
2.52,0.1,,
2.521,0.09,,
2.522,0.09,,
2.523,0.11,,
2.524,0.09,,
2.525,0.08,,
2.526,0.08,,
2.527,0.05,,
2.528,0.06,,
2.529,0,,
2.53,-0.02,,
2.531,-0.04,,
2.532,-0.09,,
2.533,-0.07,,
2.534,-0.07,,
2.535,-0.07,,
2.536,-0.05,,
2.537,-0.01,,
2.538,0.02,,
2.539,0.05,,
2.54,0.05,,
2.541,0.06,,
2.542,0.07,,
2.543,0.05,,
2.544,0.03,,
2.545,0.02,,
2.546,0.05,,
2.547,0.05,,
2.548,0.06,,
2.549,0.08,,
2.55,0.03,,
2.551,-0.02,,
2.552,-0.06,,
2.553,-0.08,,
2.554,-0.06,,
2.555,-0.06,,
2.556,0.01,,
2.557,-0.01,,
2.558,-0.01,,
2.559,0.01,,
2.56,0.06,,
2.561,0.11,,
2.562,0.11,,
2.563,0.09,,
2.564,0.06,,
2.565,0.01,,
2.566,0.01,,
2.567,0.02,,
2.568,0.08,,
2.569,0.08,,
2.57,0.04,,
2.571,-0.01,,
2.572,-0.07,,
2.573,-0.1,,
2.574,-0.1,,
2.575,-0.09,,
2.576,-0.08,,
2.577,-0.04,,
2.578,-0.02,,
2.579,0,,
2.58,0.02,,
2.581,0.04,,
2.582,0.05,,
2.583,0.06,,
2.584,0.06,,
2.585,0.05,,
2.586,0.04,,
2.587,0.04,,
2.588,0.03,,
2.589,0.03,,
2.59,0,,
2.591,0,,
2.592,-0.05,,
2.593,-0.07,,
2.594,-0.09,,
2.595,-0.1,,
2.596,-0.11,,
2.597,-0.07,,
2.598,-0.05,,
2.599,0,,
2.6,0.01,,
2.601,0.05,,
2.602,0.06,,
2.603,0.08,,
2.604,0.06,,
2.605,0.07,,
2.606,0.05,,
2.607,0.06,,
2.608,0.04,,
2.609,0.03,,
2.61,0.03,,
2.611,-0.02,,
2.612,-0.07,,
2.613,-0.05,,
2.614,-0.1,,
2.615,-0.1,,
2.616,-0.1,,
2.617,-0.1,,
2.618,-0.06,,
2.619,-0.02,,
2.62,0.03,,
2.621,0.07,,
2.622,0.1,,
2.623,0.11,,
2.624,0.13,,
2.625,0.13,,
2.626,0.1,,
2.627,0.05,,
2.628,0.03,,
2.629,0,,
2.63,0.01,,
2.631,-0.01,,
2.632,-0.01,,
2.633,-0.03,,
2.634,-0.04,,
2.635,-0.07,,
2.636,-0.08,,
2.637,-0.11,,
2.638,-0.09,,
2.639,-0.05,,
2.64,0,,
2.641,0.02,,
2.642,0.06,,
2.643,0.05,,
2.644,0.09,,
2.645,0.07,,
2.646,0.06,,
2.647,0.07,,
2.648,0.06,,
2.649,0.03,,
2.65,0.01,,
2.651,0,,
2.652,-0.01,,
2.653,-0.02,,
2.654,-0.08,,
2.655,-0.06,,
2.656,-0.09,,
2.657,-0.09,,
2.658,-0.08,,
2.659,-0.04,,
2.66,0,,
2.661,0.01,,
2.662,0.07,,
2.663,0.08,,
2.664,0.06,,
2.665,0.09,,
2.666,0.08,,
2.667,0.06,,
2.668,0.05,,
2.669,0.05,,
2.67,0.02,,
2.671,0.04,,
2.672,0,,
2.673,-0.04,,
2.674,-0.06,,
2.675,-0.08,,
2.676,-0.09,,
2.677,-0.09,,
2.678,-0.08,,
2.679,-0.08,,
2.68,-0.03,,
2.681,0.01,,
2.682,0.04,,
2.683,0.08,,
2.684,0.06,,
2.685,0.07,,
2.686,0.08,,
2.687,0.05,,
2.688,0.06,,
2.689,0.05,,
2.69,0.05,,
2.691,0.03,,
2.692,0.01,,
2.693,-0.02,,
2.694,-0.05,,
2.695,-0.1,,
2.696,-0.1,,
2.697,-0.09,,
2.698,-0.1,,
2.699,-0.06,,
2.7,-0.05,,
2.701,-0.04,,
2.702,-0.03,,
2.703,0,,
2.704,0.05,,
2.705,0.07,,
2.706,0.1,,
2.707,0.09,,
2.708,0.11,,
2.709,0.09,,
2.71,0.06,,
2.711,0.03,,
2.712,-0.01,,
2.713,0,,
2.714,-0.04,,
2.715,-0.06,,
2.716,-0.06,,
2.717,-0.1,,
2.718,-0.08,,
2.719,-0.1,,
2.72,-0.06,,
2.721,0.01,,
2.722,0.02,,
2.723,0.04,,
2.724,0.05,,
2.725,0.06,,
2.726,0.06,,
2.727,0.07,,
2.728,0.08,,
2.729,0.06,,
2.73,0.07,,
2.731,0.04,,
2.732,0.01,,
2.733,0,,
2.734,-0.02,,
2.735,-0.05,,
2.736,-0.06,,
2.737,-0.09,,
2.738,-0.09,,
2.739,-0.07,,
2.74,-0.08,,
2.741,-0.03,,
2.742,-0.01,,
2.743,0.03,,
2.744,0.05,,
2.745,0.07,,
2.746,0.05,,
2.747,0.07,,
2.748,0.06,,
2.749,0.07,,
2.75,0.06,,
2.751,0.04,,
2.752,0.03,,
2.753,0.02,,
2.754,0.01,,
2.755,-0.01,,
2.756,-0.04,,
2.757,-0.07,,
2.758,-0.1,,
2.759,-0.11,,
2.76,-0.11,,
2.761,-0.09,,
2.762,-0.05,,
2.763,-0.03,,
2.764,-0.02,,
2.765,0.01,,
2.766,0.01,,
2.767,0.03,,
2.768,0.03,,
2.769,0.06,,
2.77,0.06,,
2.771,0.08,,
2.772,0.09,,
2.773,0.09,,
2.774,0.05,,
2.775,0.04,,
2.776,0.02,,
2.777,0,,
2.778,-0.02,,
2.779,-0.06,,
2.78,-0.08,,
2.781,-0.09,,
2.782,-0.03,,
2.783,-0.02,,
2.784,0.02,,
2.785,0.04,,
2.786,0.08,,
2.787,0.08,,
2.788,0.07,,
2.789,0.06,,
2.79,0.06,,
2.791,0.05,,
2.792,0.04,,
2.793,0.02,,
2.794,0.02,,
2.795,-0.03,,
2.796,-0.02,,
2.797,-0.07,,
2.798,-0.1,,
2.799,-0.11,,
2.8,-0.1,,
2.801,-0.09,,
2.802,-0.06,,
2.803,-0.03,,
2.804,0.02,,
2.805,0.03,,
2.806,0.07,,
2.807,0.08,,
2.808,0.07,,
2.809,0.06,,
2.81,0.08,,
2.811,0.05,,
2.812,0.03,,
2.813,0.03,,
2.814,0.02,,
2.815,0,,
2.816,-0.03,,
2.817,-0.03,,
2.818,-0.07,,
2.819,-0.11,,
2.82,-0.11,,
2.821,-0.09,,
2.822,-0.06,,
2.823,-0.02,,
2.824,0,,
2.825,0.01,,
2.826,0.05,,
2.827,0.07,,
2.828,0.07,,
2.829,0.07,,
2.83,0.09,,
2.831,0.07,,
2.832,0.07,,
2.833,0.1,,
2.834,0.07,,
2.835,0.03,,
2.836,-0.04,,
2.837,-0.06,,
2.838,-0.07,,
2.839,-0.08,,
2.84,-0.1,,
2.841,-0.11,,
2.842,-0.1,,
2.843,-0.05,,
2.844,-0.01,,
2.845,-0.01,,
2.846,0.03,,
2.847,0.05,,
2.848,0.08,,
2.849,0.08,,
2.85,0.06,,
2.851,0.08,,
2.852,0.05,,
2.853,0.04,,
2.854,0.03,,
2.855,0.01,,
2.856,-0.01,,
2.857,-0.02,,
2.858,-0.04,,
2.859,-0.08,,
2.86,-0.12,,
2.861,-0.12,,
2.862,-0.12,,
2.863,-0.11,,
2.864,-0.09,,
2.865,-0.06,,
2.866,-0.01,,
2.867,0.01,,
2.868,0.04,,
2.869,0.02,,
2.87,0.04,,
2.871,0.02,,
2.872,0.03,,
2.873,0.05,,
2.874,0.09,,
2.875,0.11,,
2.876,0.11,,
2.877,0.11,,
2.878,0.07,,
2.879,0.06,,
2.88,0,,
2.881,-0.04,,
2.882,-0.04,,
2.883,-0.05,,
2.884,-0.01,,
2.885,0,,
2.886,0.03,,
2.887,0.05,,
2.888,0.04,,
2.889,0.02,,
2.89,0.02,,
2.891,-0.02,,
2.892,-0.08,,
2.893,-0.12,,
2.894,-0.16,,
2.895,-0.19,,
2.896,-0.21,,
2.897,-0.23,,
2.898,-0.23,,
2.899,-0.2,,
2.9,-0.14,,
2.901,-0.05,,
2.902,0.01,,
2.903,0.11,,
2.904,0.12,,
2.905,0.21,,
2.906,0.35,,
2.907,0.31,,
2.908,0.2,,
2.909,0.13,,
2.91,0.11,,
2.911,0.07,,
2.912,0.06,,
2.913,0.11,,
2.914,0.16,,
2.915,0.15,,
2.916,0.12,,
2.917,0.09,,
2.918,0.07,,
2.919,0.05,,
2.92,0,,
2.921,-0.03,,
2.922,-0.08,,
2.923,-0.1,,
2.924,-0.14,,
2.925,-0.16,,
2.926,-0.18,,
2.927,-0.15,,
2.928,-0.14,,
2.929,-0.08,,
2.93,-0.11,,
2.931,-0.21,,
2.932,-0.24,,
2.933,-0.24,,
2.934,-0.22,,
2.935,-0.17,,
2.936,0,,
2.937,0.09,,
2.938,0.04,,
2.939,-0.06,,
2.94,-0.17,,
2.941,-0.2,,
2.942,0.08,,
2.943,0.15,,
2.944,0.08,,
2.945,0.06,,
2.946,-0.03,,
2.947,-0.11,,
2.948,-0.2,,
2.949,-0.21,,
2.95,-0.07,,
2.951,-0.06,,
2.952,0.06,,
2.953,0.11,,
2.954,-0.06,,
2.955,-0.2,,
2.956,-0.26,,
2.957,0.02,,
2.958,0.27,,
2.959,0.22,,
2.96,0.27,,
2.961,0.11,,
2.962,-0.26,,
2.963,-0.34,,
2.964,-0.13,,
2.965,0.4,,
2.966,0.56,,
2.967,0.34,,
2.968,0.15,,
2.969,0,,
2.97,-0.03,,
2.971,0.01,,
2.972,-0.04,,
2.973,-0.04,,
2.974,-0.08,,
2.975,-0.07,,
2.976,-0.01,,
2.977,-0.16,,
2.978,-0.3,,
2.979,-0.2,,
2.98,-0.15,,
2.981,0.11,,
2.982,0.27,,
2.983,0.17,,
2.984,-0.16,,
2.985,-0.47,,
2.986,-0.34,,
2.987,-0.38,,
2.988,-0.27,,
2.989,0.05,,
2.99,0.12,,
2.991,0.24,,
2.992,0.84,,
2.993,1.13,,
2.994,0.83,,
2.995,0.39,,
2.996,0.17,,
2.997,0.11,,
2.998,0.09,,
2.999,-0.17,,
3,-0.38,,
3.001,-0.09,,
3.002,-0.13,,
3.003,0.07,,
3.004,0.23,,
3.005,-0.13,,
3.006,-0.2,,
3.007,-0.25,,
3.008,-0.34,,
3.009,-0.42,,
3.01,-0.49,,
3.011,-0.57,,
3.012,-0.34,,
3.013,-0.34,,
3.014,0.02,,
3.015,0.28,,
3.016,0.54,,
3.017,1.51,,
3.018,1.45,,
3.019,0.71,,
3.02,0.16,,
3.021,0.28,,
3.022,0.39,,
3.023,0.21,,
3.024,0,,
3.025,-0.19,,
3.026,-0.37,,
3.027,-0.61,,
3.028,-0.36,,
3.029,-0.06,,
3.03,0,,
3.031,-0.02,,
3.032,0.28,,
3.033,0.48,,
3.034,0.51,,
3.035,0.7,,
3.036,0.66,,
3.037,0.66,,
3.038,0.12,,
3.039,-0.38,,
3.04,-0.28,,
3.041,-0.35,,
3.042,-0.24,,
3.043,-0.22,,
3.044,-0.27,,
3.045,-0.17,,
3.046,-0.18,,
3.047,-0.05,,
3.048,-0.27,,
3.049,-0.68,,
3.05,-0.72,,
3.051,-0.66,,
3.052,-0.56,,
3.053,-0.39,,
3.054,-0.23,,
3.055,-0.07,,
3.056,0.25,,
3.057,0.63,,
3.058,0.9,,
3.059,0.48,,
3.06,0.46,,
3.061,0.63,,
3.062,0.59,,
3.063,0.05,,
3.064,-0.22,,
3.065,-0.29,,
3.066,-0.1,,
3.067,-0.46,,
3.068,-0.69,,
3.069,-0.37,,
3.07,0.35,,
3.071,0.6,,
3.072,0.57,,
3.073,0.37,,
3.074,0.24,,
3.075,0.1,,
3.076,-0.23,,
3.077,-0.38,,
3.078,-0.1,,
3.079,-0.16,,
3.08,-0.15,,
3.081,-0.03,,
3.082,0.03,,
3.083,0.25,,
3.084,-0.1,,
3.085,-0.59,,
3.086,-0.76,,
3.087,-0.61,,
3.088,-0.45,,
3.089,0.02,,
3.09,0.43,,
3.091,0.44,,
3.092,0.4,,
3.093,0.64,,
3.094,0.5,,
3.095,0.13,,
3.096,-0.31,,
3.097,-0.08,,
3.098,0.13,,
3.099,0.1,,
3.1,0,,
3.101,-0.14,,
3.102,-0.28,,
3.103,0.03,,
3.104,0.27,,
3.105,0.25,,
3.106,0.29,,
3.107,0.12,,
3.108,0.12,,
3.109,-0.01,,
3.11,-0.27,,
3.111,-0.26,,
3.112,0.14,,
3.113,0.43,,
3.114,0.21,,
3.115,-0.08,,
3.116,0.08,,
3.117,0.07,,
3.118,-0.07,,
3.119,-0.27,,
3.12,-0.43,,
3.121,-0.28,,
3.122,-0.05,,
3.123,0.21,,
3.124,0.14,,
3.125,0,,
3.126,-0.12,,
3.127,0.09,,
3.128,0.24,,
3.129,-0.08,,
3.13,0,,
3.131,0.11,,
3.132,0.01,,
3.133,-0.04,,
3.134,-0.13,,
3.135,-0.1,,
3.136,-0.09,,
3.137,0.45,,
3.138,0.51,,
3.139,0.32,,
3.14,-0.33,,
3.141,-0.47,,
3.142,-0.38,,
3.143,-0.25,,
3.144,-0.17,,
3.145,0.15,,
3.146,0.05,,
3.147,-0.17,,
3.148,-0.34,,
3.149,-0.27,,
3.15,-0.4,,
3.151,-0.72,,
3.152,-0.76,,
3.153,-0.22,,
3.154,0.24,,
3.155,0.92,,
3.156,1.12,,
3.157,0.87,,
3.158,0.59,,
3.159,0.08,,
3.16,-0.38,,
3.161,-0.73,,
3.162,-0.43,,
3.163,0.16,,
3.164,0.41,,
3.165,0.42,,
3.166,0.44,,
3.167,0.29,,
3.168,0.08,,
3.169,-0.03,,
3.17,-0.2,,
3.171,-0.22,,
3.172,-0.03,,
3.173,0.1,,
3.174,0.22,,
3.175,0.27,,
3.176,-0.02,,
3.177,-0.21,,
3.178,-0.22,,
3.179,-0.19,,
3.18,0,,
3.181,-0.07,,
3.182,-0.23,,
3.183,-0.02,,
3.184,0.21,,
3.185,0,,
3.186,-0.31,,
3.187,-0.34,,
3.188,0.2,,
3.189,0.11,,
3.19,0,,
3.191,-0.03,,
3.192,-0.25,,
3.193,-0.24,,
3.194,-0.07,,
3.195,0.04,,
3.196,-0.37,,
3.197,-0.76,,
3.198,-0.55,,
3.199,0.04,,
3.2,-0.01,,
3.201,0.03,,
3.202,0,,
3.203,0.02,,
3.204,0.39,,
3.205,0.76,,
3.206,0.34,,
3.207,0.46,,
3.208,0.32,,
3.209,0.03,,
3.21,0.16,,
3.211,0.28,,
3.212,0.21,,
3.213,0.17,,
3.214,0.13,,
3.215,-0.05,,
3.216,-0.21,,
3.217,-0.21,,
3.218,0.04,,
3.219,0.06,,
3.22,-0.1,,
3.221,-0.01,,
3.222,0.11,,
3.223,0.09,,
3.224,0.05,,
3.225,0.06,,
3.226,-0.06,,
3.227,-0.33,,
3.228,-0.93,,
3.229,-0.8,,
3.23,-0.4,,
3.231,-0.23,,
3.232,-0.05,,
3.233,0.11,,
3.234,0.46,,
3.235,0.37,,
3.236,0.43,,
3.237,0.41,,
3.238,0.54,,
3.239,0.54,,
3.24,0.39,,
3.241,0.16,,
3.242,-0.04,,
3.243,0.09,,
3.244,0.32,,
3.245,-0.04,,
3.246,-0.39,,
3.247,-0.6,,
3.248,-0.66,,
3.249,-0.73,,
3.25,-0.44,,
3.251,0.23,,
3.252,0.44,,
3.253,0.25,,
3.254,0.18,,
3.255,0.03,,
3.256,-0.44,,
3.257,-0.57,,
3.258,-0.33,,
3.259,0,,
3.26,-0.12,,
3.261,-0.1,,
3.262,0.28,,
3.263,0.44,,
3.264,0.87,,
3.265,0.92,,
3.266,0.66,,
3.267,0.25,,
3.268,-0.2,,
3.269,-0.32,,
3.27,0.09,,
3.271,0.07,,
3.272,-0.06,,
3.273,-0.03,,
3.274,-0.12,,
3.275,-0.3,,
3.276,-0.2,,
3.277,-0.05,,
3.278,-0.28,,
3.279,-0.29,,
3.28,0.21,,
3.281,0.36,,
3.282,-0.23,,
3.283,-0.51,,
3.284,0.09,,
3.285,0.56,,
3.286,0.27,,
3.287,-0.1,,
3.288,-0.33,,
3.289,-0.4,,
3.29,-0.49,,
3.291,-1.1,,
3.292,-1.2,,
3.293,-0.88,,
3.294,-0.51,,
3.295,0.57,,
3.296,0.71,,
3.297,0.67,,
3.298,0.89,,
3.299,1.19,,
3.3,0.96,,
3.301,0.49,,
3.302,0.48,,
3.303,0.08,,
3.304,-0.29,,
3.305,-0.4,,
3.306,-0.35,,
3.307,-0.17,,
3.308,-0.05,,
3.309,0.35,,
3.31,0.44,,
3.311,-0.03,,
3.312,-0.27,,
3.313,-0.16,,
3.314,-0.09,,
3.315,0.13,,
3.316,0.13,,
3.317,0.13,,
3.318,0.12,,
3.319,0.14,,
3.32,-0.16,,
3.321,-0.25,,
3.322,0,,
3.323,0.44,,
3.324,0.1,,
3.325,0,,
3.326,-0.05,,
3.327,-0.06,,
3.328,-0.04,,
3.329,-0.1,,
3.33,-0.11,,
3.331,-0.12,,
3.332,-0.1,,
3.333,-0.14,,
3.334,-0.91,,
3.335,-1.51,,
3.336,-1.17,,
3.337,-0.58,,
3.338,-0.86,,
3.339,-0.2,,
3.34,0.7,,
3.341,1.28,,
3.342,1.39,,
3.343,1.41,,
3.344,0.85,,
3.345,0.37,,
3.346,0.19,,
3.347,0.16,,
3.348,0.1,,
3.349,-0.03,,
3.35,-0.29,,
3.351,-0.39,,
3.352,-0.59,,
3.353,-0.31,,
3.354,-0.26,,
3.355,-0.13,,
3.356,0.04,,
3.357,0.39,,
3.358,0.44,,
3.359,0.17,,
3.36,0.14,,
3.361,0.22,,
3.362,0.08,,
3.363,-0.05,,
3.364,-0.08,,
3.365,-0.13,,
3.366,-0.2,,
3.367,-0.18,,
3.368,0.05,,
3.369,-0.01,,
3.37,0,,
3.371,0,,
3.372,-0.07,,
3.373,-0.22,,
3.374,-0.53,,
3.375,-0.55,,
3.376,-0.55,,
3.377,-0.97,,
3.378,-0.75,,
3.379,0.09,,
3.38,0.38,,
3.381,0.68,,
3.382,1.11,,
3.383,1.28,,
3.384,0.61,,
3.385,0.17,,
3.386,0.04,,
3.387,0.11,,
3.388,-0.01,,
3.389,-0.03,,
3.39,-0.14,,
3.391,-0.43,,
3.392,-0.84,,
3.393,-1.02,,
3.394,-0.72,,
3.395,-0.56,,
3.396,-0.47,,
3.397,0.37,,
3.398,0.9,,
3.399,1,,
3.4,0.84,,
3.401,0.56,,
3.402,0.3,,
3.403,0.07,,
3.404,-0.38,,
3.405,-0.48,,
3.406,0.29,,
3.407,0.14,,
3.408,-0.3,,
3.409,-0.25,,
3.41,-0.38,,
3.411,-0.19,,
3.412,0.35,,
3.413,0.27,,
3.414,0.09,,
3.415,0.1,,
3.416,0.1,,
3.417,0.16,,
3.418,0.13,,
3.419,0.08,,
3.42,-0.11,,
3.421,-0.09,,
3.422,-0.88,,
3.423,-1.65,,
3.424,-1.49,,
3.425,0.09,,
3.426,-0.38,,
3.427,-0.45,,
3.428,0.97,,
3.429,1.05,,
3.43,1.15,,
3.431,1.55,,
3.432,0.91,,
3.433,0.41,,
3.434,0.15,,
3.435,0.03,,
3.436,0.02,,
3.437,-0.04,,
3.438,-0.05,,
3.439,-0.06,,
3.44,-0.15,,
3.441,-0.11,,
3.442,-0.01,,
3.443,0.03,,
3.444,-0.08,,
3.445,-0.11,,
3.446,-0.12,,
3.447,0.07,,
3.448,0.16,,
3.449,0.13,,
3.45,0.05,,
3.451,-0.02,,
3.452,-0.08,,
3.453,-0.13,,
3.454,-0.14,,
3.455,-0.13,,
3.456,-0.12,,
3.457,-0.08,,
3.458,-0.07,,
3.459,-0.04,,
3.46,0.01,,
3.461,0.04,,
3.462,0.02,,
3.463,0.02,,
3.464,0.06,,
3.465,0.08,,
3.466,0.08,,
3.467,0.06,,
3.468,0.06,,
3.469,0.08,,
3.47,-0.01,,
3.471,-0.15,,
3.472,-0.12,,
3.473,-0.23,,
3.474,-0.48,,
3.475,-0.5,,
3.476,0.14,,
3.477,0.18,,
3.478,-0.11,,
3.479,0.06,,
3.48,0.2,,
3.481,0.17,,
3.482,0.21,,
3.483,0.07,,
3.484,0,,
3.485,-0.12,,
3.486,-0.05,,
3.487,-0.08,,
3.488,-0.02,,
3.489,0,,
3.49,0.51,,
3.491,0.34,,
3.492,0.1,,
3.493,-0.04,,
3.494,-0.53,,
3.495,-0.97,,
3.496,-0.96,,
3.497,-0.1,,
3.498,0.46,,
3.499,-0.51,,
3.5,-0.15,,
3.501,0.5,,
3.502,0.84,,
3.503,0.85,,
3.504,0.69,,
3.505,0.54,,
3.506,0.28,,
3.507,0.16,,
3.508,0.07,,
3.509,-0.14,,
3.51,-0.48,,
3.511,-0.68,,
3.512,-0.5,,
3.513,-0.29,,
3.514,-0.14,,
3.515,0.35,,
3.516,0.44,,
3.517,0.29,,
3.518,0.31,,
3.519,0.33,,
3.52,0.15,,
3.521,-0.01,,
3.522,0.05,,
3.523,0.07,,
3.524,0.05,,
3.525,0.08,,
3.526,0.03,,
3.527,0.01,,
3.528,-0.04,,
3.529,-0.09,,
3.53,-0.08,,
3.531,-0.01,,
3.532,0.02,,
3.533,-0.02,,
3.534,-0.06,,
3.535,0,,
3.536,-0.06,,
3.537,-0.1,,
3.538,-0.1,,
3.539,-0.09,,
3.54,-0.06,,
3.541,-0.02,,
3.542,0,,
3.543,0.05,,
3.544,0.06,,
3.545,0.07,,
3.546,0.08,,
3.547,0.06,,
3.548,0.08,,
3.549,0.06,,
3.55,0.06,,
3.551,0.04,,
3.552,0.01,,
3.553,-0.02,,
3.554,-0.04,,
3.555,-0.08,,
3.556,-0.1,,
3.557,-0.1,,
3.558,-0.08,,
3.559,-0.08,,
3.56,-0.03,,
3.561,0,,
3.562,0.03,,
3.563,0.05,,
3.564,0.07,,
3.565,0.06,,
3.566,0.08,,
3.567,0.1,,
3.568,0.08,,
3.569,0.04,,
3.57,0.05,,
3.571,0.04,,
3.572,-0.01,,
3.573,-0.05,,
3.574,-0.14,,
3.575,-0.1,,
3.576,-0.2,,
3.577,-0.17,,
3.578,-0.09,,
3.579,-0.17,,
3.58,-0.08,,
3.581,0.07,,
3.582,0.13,,
3.583,0.15,,
3.584,0.13,,
3.585,0.18,,
3.586,0.15,,
3.587,0.12,,
3.588,0.1,,
3.589,0.07,,
3.59,0.04,,
3.591,0.04,,
3.592,0.06,,
3.593,0.06,,
3.594,0.03,,
3.595,0.02,,
3.596,-0.05,,
3.597,-0.11,,
3.598,-0.22,,
3.599,-0.32,,
3.6,-0.35,,
3.601,-0.24,,
3.602,-0.24,,
3.603,-0.34,,
3.604,-0.15,,
3.605,0.14,,
3.606,0.33,,
3.607,0.64,,
3.608,0.58,,
3.609,0.3,,
3.61,0.12,,
3.611,0.07,,
3.612,0.07,,
3.613,0.08,,
3.614,0.01,,
3.615,0,,
3.616,-0.04,,
3.617,-0.08,,
3.618,-0.12,,
3.619,-0.11,,
3.62,-0.11,,
3.621,-0.08,,
3.622,-0.06,,
3.623,-0.05,,
3.624,0.01,,
3.625,0.03,,
3.626,0.02,,
3.627,0.01,,
3.628,0.03,,
3.629,0.02,,
3.63,0.03,,
3.631,0.08,,
3.632,0.07,,
3.633,0.05,,
3.634,0.02,,
3.635,-0.02,,
3.636,-0.04,,
3.637,-0.09,,
3.638,-0.12,,
3.639,-0.11,,
3.64,-0.1,,
3.641,-0.09,,
3.642,-0.05,,
3.643,-0.02,,
3.644,0,,
3.645,0.05,,
3.646,0.05,,
3.647,0.08,,
3.648,0.08,,
3.649,0.07,,
3.65,0.06,,
3.651,0.06,,
3.652,0.06,,
3.653,0.03,,
3.654,0.03,,
3.655,-0.03,,
3.656,-0.05,,
3.657,-0.08,,
3.658,-0.09,,
3.659,-0.09,,
3.66,-0.09,,
3.661,-0.06,,
3.662,-0.06,,
3.663,-0.01,,
3.664,0,,
3.665,0.04,,
3.666,0.03,,
3.667,0.06,,
3.668,0.08,,
3.669,0.07,,
3.67,0.04,,
3.671,0.07,,
3.672,0.05,,
3.673,0,,
3.674,-0.08,,
3.675,-0.17,,
3.676,-0.23,,
3.677,-0.19,,
3.678,-0.08,,
3.679,-0.02,,
3.68,0.02,,
3.681,0,,
3.682,-0.01,,
3.683,0,,
3.684,-0.06,,
3.685,-0.04,,
3.686,-0.06,,
3.687,0,,
3.688,0.09,,
3.689,0.21,,
3.69,0.3,,
3.691,0.17,,
3.692,0.02,,
3.693,0.02,,
3.694,0.03,,
3.695,0.02,,
3.696,-0.03,,
3.697,-0.05,,
3.698,-0.08,,
3.699,-0.13,,
3.7,-0.15,,
3.701,-0.12,,
3.702,-0.11,,
3.703,-0.09,,
3.704,-0.05,,
3.705,-0.03,,
3.706,0.02,,
3.707,0.04,,
3.708,0.04,,
3.709,0.04,,
3.71,0.01,,
3.711,0.03,,
3.712,0.03,,
3.713,0,,
3.714,0,,
3.715,-0.02,,
3.716,-0.07,,
3.717,-0.14,,
3.718,-0.2,,
3.719,-0.23,,
3.72,-0.28,,
3.721,-0.29,,
3.722,-0.24,,
3.723,-0.18,,
3.724,-0.08,,
3.725,-0.09,,
3.726,-0.09,,
3.727,-0.02,,
3.728,0,,
3.729,0.03,,
3.73,0.01,,
3.731,0.01,,
3.732,0.06,,
3.733,0.28,,
3.734,0.38,,
3.735,0.23,,
3.736,0.03,,
3.737,-0.05,,
3.738,-0.15,,
3.739,-0.3,,
3.74,-0.21,,
3.741,-0.17,,
3.742,-0.18,,
3.743,-0.11,,
3.744,-0.05,,
3.745,-0.03,,
3.746,-0.09,,
3.747,-0.03,,
3.748,0.07,,
3.749,0.11,,
3.75,0.1,,
3.751,0.29,,
3.752,0.33,,
3.753,0.13,,
3.754,0,,
3.755,-0.11,,
3.756,-0.07,,
3.757,-0.09,,
3.758,-0.03,,
3.759,-0.01,,
3.76,-0.03,,
3.761,0.01,,
3.762,0.04,,
3.763,0.12,,
3.764,0.15,,
3.765,0.16,,
3.766,0.15,,
3.767,0.09,,
3.768,0.03,,
3.769,-0.02,,
3.77,-0.03,,
3.771,-0.1,,
3.772,-0.12,,
3.773,-0.11,,
3.774,-0.08,,
3.775,-0.11,,
3.776,-0.11,,
3.777,-0.1,,
3.778,-0.05,,
3.779,0.11,,
3.78,0.17,,
3.781,0.2,,
3.782,0.11,,
3.783,0.01,,
3.784,-0.03,,
3.785,-0.04,,
3.786,0.07,,
3.787,0.05,,
3.788,0.11,,
3.789,0.03,,
3.79,0.08,,
3.791,0.16,,
3.792,0.22,,
3.793,0.21,,
3.794,0.16,,
3.795,0.12,,
3.796,0.04,,
3.797,-0.03,,
3.798,-0.04,,
3.799,-0.06,,
3.8,-0.09,,
3.801,-0.11,,
3.802,-0.13,,
3.803,-0.13,,
3.804,-0.13,,
3.805,-0.1,,
3.806,-0.08,,
3.807,-0.06,,
3.808,0.02,,
3.809,0.09,,
3.81,0.1,,
3.811,0.11,,
3.812,0.07,,
3.813,0.05,,
3.814,0.02,,
3.815,0.03,,
3.816,0.03,,
3.817,0.02,,
3.818,-0.02,,
3.819,-0.04,,
3.82,-0.04,,
3.821,-0.08,,
3.822,-0.09,,
3.823,-0.11,,
3.824,-0.13,,
3.825,-0.13,,
3.826,-0.13,,
3.827,-0.08,,
3.828,-0.03,,
3.829,0.03,,
3.83,0.03,,
3.831,0.06,,
3.832,0.05,,
3.833,0.06,,
3.834,0.09,,
3.835,0.07,,
3.836,0.04,,
3.837,0.04,,
3.838,0.03,,
3.839,0,,
3.84,-0.05,,
3.841,-0.08,,
3.842,-0.1,,
3.843,-0.13,,
3.844,-0.08,,
3.845,-0.1,,
3.846,-0.1,,
3.847,-0.03,,
3.848,-0.01,,
3.849,0,,
3.85,0.03,,
3.851,0.03,,
3.852,0.05,,
3.853,0.07,,
3.854,0.03,,
3.855,0.04,,
3.856,0.04,,
3.857,0.07,,
3.858,0.08,,
3.859,0.03,,
3.86,-0.01,,
3.861,-0.02,,
3.862,-0.06,,
3.863,-0.1,,
3.864,-0.09,,
3.865,-0.09,,
3.866,-0.06,,
3.867,-0.03,,
3.868,-0.01,,
3.869,0.04,,
3.87,0.08,,
3.871,0.07,,
3.872,0.11,,
3.873,0.11,,
3.874,0.1,,
3.875,0.08,,
3.876,0.04,,
3.877,0.04,,
3.878,0.03,,
3.879,0.03,,
3.88,0.01,,
3.881,-0.01,,
3.882,-0.05,,
3.883,-0.09,,
3.884,-0.11,,
3.885,-0.1,,
3.886,-0.07,,
3.887,-0.03,,
3.888,-0.02,,
3.889,0.01,,
3.89,0.04,,
3.891,0.06,,
3.892,0.05,,
3.893,0.09,,
3.894,0.07,,
3.895,0.07,,
3.896,0.08,,
3.897,0.09,,
3.898,0.05,,
3.899,0.01,,
3.9,0,,
3.901,-0.02,,
3.902,-0.03,,
3.903,-0.05,,
3.904,-0.09,,
3.905,-0.08,,
3.906,-0.08,,
3.907,-0.08,,
3.908,-0.06,,
3.909,-0.04,,
3.91,0,,
3.911,0.05,,
3.912,0.08,,
3.913,0.11,,
3.914,0.08,,
3.915,0.09,,
3.916,0.08,,
3.917,0.07,,
3.918,0.08,,
3.919,0.04,,
3.92,0.03,,
3.921,0.01,,
3.922,-0.02,,
3.923,-0.04,,
3.924,-0.09,,
3.925,-0.11,,
3.926,-0.13,,
3.927,-0.11,,
3.928,-0.05,,
3.929,-0.04,,
3.93,0,,
3.931,0.01,,
3.932,0.03,,
3.933,0.07,,
3.934,0.08,,
3.935,0.09,,
3.936,0.04,,
3.937,0.01,,
3.938,0.04,,
3.939,0.03,,
3.94,0.03,,
3.941,0.04,,
3.942,0,,
3.943,-0.06,,
3.944,-0.06,,
3.945,-0.09,,
3.946,-0.09,,
3.947,-0.1,,
3.948,-0.09,,
3.949,-0.04,,
3.95,0,,
3.951,0.03,,
3.952,0.06,,
3.953,0.08,,
3.954,0.09,,
3.955,0.08,,
3.956,0.09,,
3.957,0.08,,
3.958,0.05,,
3.959,0.03,,
3.96,0.03,,
3.961,0.04,,
3.962,0.01,,
3.963,-0.01,,
3.964,-0.06,,
3.965,-0.1,,
3.966,-0.1,,
3.967,-0.13,,
3.968,-0.12,,
3.969,-0.09,,
3.97,-0.04,,
3.971,-0.03,,
3.972,-0.02,,
3.973,0.03,,
3.974,0.04,,
3.975,0.07,,
3.976,0.08,,
3.977,0.08,,
3.978,0.11,,
3.979,0.1,,
3.98,0.11,,
3.981,0.09,,
3.982,0.05,,
3.983,0.02,,
3.984,-0.02,,
3.985,-0.08,,
3.986,-0.09,,
3.987,-0.11,,
3.988,-0.09,,
3.989,-0.05,,
3.99,-0.04,,
3.991,0,,
3.992,0,,
3.993,0.05,,
3.994,0.08,,
3.995,0.08,,
3.996,0.05,,
3.997,0.05,,
3.998,0.04,,
3.999,0.03,,
4,0.04,,
4.001,0.03,,
4.002,0.01,,
4.003,-0.01,,
4.004,-0.01,,
4.005,-0.04,,
4.006,-0.09,,
4.007,-0.12,,
4.008,-0.1,,
4.009,-0.11,,
4.01,-0.01,,
4.011,0,,
4.012,0.03,,
4.013,0.04,,
4.014,0.07,,
4.015,0.05,,
4.016,0.05,,
4.017,0.08,,
4.018,0.08,,
4.019,0.04,,
4.02,0.06,,
4.021,0.03,,
4.022,0.01,,
4.023,-0.01,,
4.024,-0.01,,
4.025,-0.05,,
4.026,-0.09,,
4.027,-0.11,,
4.028,-0.09,,
4.029,-0.1,,
4.03,-0.08,,
4.031,-0.04,,
4.032,-0.02,,
4.033,0.02,,
4.034,0.06,,
4.035,0.08,,
4.036,0.06,,
4.037,0.05,,
4.038,0.04,,
4.039,0.03,,
4.04,0.01,,
4.041,0.03,,
4.042,0,,
4.043,-0.05,,
4.044,-0.06,,
4.045,-0.07,,
4.046,-0.05,,
4.047,-0.1,,
4.048,-0.07,,
4.049,-0.08,,
4.05,-0.04,,
4.051,0.02,,
4.052,0.03,,
4.053,0.06,,
4.054,0.08,,
4.055,0.11,,
4.056,0.11,,
4.057,0.1,,
4.058,0.07,,
4.059,0.06,,
4.06,0.07,,
4.061,0.09,,
4.062,0.08,,
4.063,0.03,,
4.064,-0.01,,
4.065,-0.04,,
4.066,-0.09,,
4.067,-0.1,,
4.068,-0.11,,
4.069,-0.12,,
4.07,-0.1,,
4.071,-0.12,,
4.072,-0.06,,
4.073,-0.01,,
4.074,0.01,,
4.075,0.06,,
4.076,0.11,,
4.077,0.11,,
4.078,0.09,,
4.079,0.1,,
4.08,0.09,,
4.081,0.05,,
4.082,0.05,,
4.083,0.04,,
4.084,0.01,,
4.085,0,,
4.086,-0.03,,
4.087,-0.07,,
4.088,-0.06,,
4.089,-0.1,,
4.09,-0.1,,
4.091,-0.11,,
4.092,-0.07,,
4.093,-0.01,,
4.094,0.01,,
4.095,0.04,,
4.096,0.05,,
4.097,0.06,,
4.098,0.07,,
4.099,0.06,,
4.1,0.04,,
4.101,0.06,,
4.102,0.03,,
4.103,0.02,,
4.104,0.01,,
4.105,0.03,,
4.106,0.01,,
4.107,-0.02,,
4.108,-0.05,,
4.109,-0.09,,
4.11,-0.07,,
4.111,-0.03,,
4.112,-0.06,,
4.113,-0.04,,
4.114,-0.01,,
4.115,0,,
4.116,0.02,,
4.117,0.07,,
4.118,0.05,,
4.119,0.07,,
4.12,0.05,,
4.121,0.06,,
4.122,0.01,,
4.123,0,,
4.124,-0.02,,
4.125,-0.06,,
4.126,-0.1,,
4.127,-0.13,,
4.128,-0.13,,
4.129,-0.16,,
4.13,-0.18,,
4.131,-0.16,,
4.132,-0.07,,
4.133,-0.04,,
4.134,0.04,,
4.135,0.1,,
4.136,0.11,,
4.137,0.14,,
4.138,0.13,,
4.139,0.11,,
4.14,0.12,,
4.141,0.12,,
4.142,0.1,,
4.143,0.1,,
4.144,0.04,,
4.145,0,,
4.146,0.01,,
4.147,0.03,,
4.148,0,,
4.149,-0.01,,
4.15,-0.07,,
4.151,-0.08,,
4.152,-0.13,,
4.153,-0.11,,
4.154,-0.14,,
4.155,-0.11,,
4.156,-0.08,,
4.157,-0.02,,
4.158,0.01,,
4.159,-0.07,,
4.16,-0.08,,
4.161,-0.11,,
4.162,-0.11,,
4.163,-0.13,,
4.164,-0.11,,
4.165,-0.07,,
4.166,-0.02,,
4.167,0.11,,
4.168,0.16,,
4.169,0.12,,
4.17,0.12,,
4.171,0.2,,
4.172,0.21,,
4.173,0.16,,
4.174,0.12,,
4.175,0.09,,
4.176,-0.01,,
4.177,-0.02,,
4.178,-0.06,,
4.179,-0.07,,
4.18,-0.02,,
4.181,0.02,,
4.182,0.02,,
4.183,-0.04,,
4.184,-0.05,,
4.185,-0.05,,
4.186,-0.01,,
4.187,-0.13,,
4.188,-0.31,,
4.189,-0.4,,
4.19,-0.52,,
4.191,-0.48,,
4.192,-0.4,,
4.193,-0.26,,
4.194,-0.34,,
4.195,-0.39,,
4.196,-0.32,,
4.197,-0.29,,
4.198,-0.26,,
4.199,-0.25,,
4.2,0.04,,
4.201,0.22,,
4.202,0.29,,
4.203,0.6,,
4.204,0.95,,
4.205,0.99,,
4.206,0.63,,
4.207,0.46,,
4.208,0.45,,
4.209,0.06,,
4.21,-0.28,,
4.211,-0.75,,
4.212,-0.82,,
4.213,-0.73,,
4.214,-0.57,,
4.215,-0.28,,
4.216,-0.08,,
4.217,-0.11,,
4.218,-0.17,,
4.219,-0.03,,
4.22,-0.09,,
4.221,0.14,,
4.222,0.27,,
4.223,0.05,,
4.224,-0.27,,
4.225,0.15,,
4.226,0.39,,
4.227,0.46,,
4.228,0.78,,
4.229,0.57,,
4.23,0.46,,
4.231,0.49,,
4.232,0.72,,
4.233,0.97,,
4.234,0.78,,
4.235,0.42,,
4.236,-0.07,,
4.237,-0.63,,
4.238,-0.78,,
4.239,-0.61,,
4.24,-0.26,,
4.241,-0.51,,
4.242,-1.38,,
4.243,-1.39,,
4.244,-0.75,,
4.245,-0.03,,
4.246,0.09,,
4.247,-0.13,,
4.248,-0.16,,
4.249,0.46,,
4.25,0.49,,
4.251,0.71,,
4.252,0.94,,
4.253,1.21,,
4.254,0.37,,
4.255,0,,
4.256,0.41,,
4.257,0.56,,
4.258,0.26,,
4.259,0.3,,
4.26,0.35,,
4.261,0.44,,
4.262,0.22,,
4.263,0.1,,
4.264,0.09,,
4.265,0.26,,
4.266,0.17,,
4.267,-0.11,,
4.268,-0.18,,
4.269,-0.19,,
4.27,-0.11,,
4.271,-0.24,,
4.272,-0.51,,
4.273,-0.68,,
4.274,-0.53,,
4.275,-0.23,,
4.276,0,,
4.277,0.28,,
4.278,0.35,,
4.279,0.19,,
4.28,0.05,,
4.281,-0.17,,
4.282,0.37,,
4.283,0.32,,
4.284,-1.15,,
4.285,-1.33,,
4.286,-0.43,,
4.287,-0.25,,
4.288,-0.86,,
4.289,-0.32,,
4.29,0.13,,
4.291,0.85,,
4.292,0.52,,
4.293,0.03,,
4.294,-0.03,,
4.295,0.11,,
4.296,0.45,,
4.297,0.89,,
4.298,0.5,,
4.299,0.15,,
4.3,0.08,,
4.301,0.03,,
4.302,-0.15,,
4.303,-0.21,,
4.304,0,,
4.305,0.29,,
4.306,0.13,,
4.307,-0.1,,
4.308,-0.11,,
4.309,-0.02,,
4.31,0.05,,
4.311,0.03,,
4.312,-0.01,,
4.313,-0.03,,
4.314,-0.3,,
4.315,-0.38,,
4.316,-0.11,,
4.317,-0.01,,
4.318,0.03,,
4.319,-0.07,,
4.32,-0.38,,
4.321,-0.26,,
4.322,0.21,,
4.323,0.36,,
4.324,0.13,,
4.325,0.25,,
4.326,0.28,,
4.327,0.3,,
4.328,0.08,,
4.329,-0.23,,
4.33,-0.72,,
4.331,-0.98,,
4.332,-0.51,,
4.333,-0.12,,
4.334,-0.42,,
4.335,-0.19,,
4.336,-0.07,,
4.337,0.47,,
4.338,0.71,,
4.339,0.2,,
4.34,0.04,,
4.341,-0.04,,
4.342,0.08,,
4.343,0.12,,
4.344,0.2,,
4.345,0.15,,
4.346,0.17,,
4.347,0.81,,
4.348,0.45,,
4.349,0.06,,
4.35,0,,
4.351,-0.3,,
4.352,-0.27,,
4.353,-0.06,,
4.354,0.63,,
4.355,0.23,,
4.356,-0.2,,
4.357,-0.11,,
4.358,-0.18,,
4.359,-0.04,,
4.36,0.3,,
4.361,0.19,,
4.362,0,,
4.363,-0.14,,
4.364,-0.2,,
4.365,-0.19,,
4.366,0.09,,
4.367,0.02,,
4.368,0,,
4.369,0.06,,
4.37,0.21,,
4.371,0.12,,
4.372,0.02,,
4.373,-0.11,,
4.374,-0.15,,
4.375,-0.11,,
4.376,-0.2,,
4.377,-0.33,,
4.378,-0.34,,
4.379,-0.33,,
4.38,-0.33,,
4.381,-0.24,,
4.382,0.1,,
4.383,0.42,,
4.384,0.45,,
4.385,0.3,,
4.386,0.21,,
4.387,0.06,,
4.388,-0.11,,
4.389,-0.44,,
4.39,-0.94,,
4.391,-1.08,,
4.392,-0.5,,
4.393,0.1,,
4.394,0.07,,
4.395,0.42,,
4.396,0.46,,
4.397,0.24,,
4.398,0.32,,
4.399,0.44,,
4.4,0.08,,
4.401,-0.06,,
4.402,-0.1,,
4.403,0.13,,
4.404,0.15,,
4.405,0.06,,
4.406,0.06,,
4.407,0.22,,
4.408,0.44,,
4.409,0.71,,
4.41,0.82,,
4.411,0.26,,
4.412,-0.54,,
4.413,-0.73,,
4.414,-0.43,,
4.415,-0.23,,
4.416,-0.26,,
4.417,-0.11,,
4.418,0.02,,
4.419,-0.06,,
4.42,-0.11,,
4.421,0.04,,
4.422,-0.04,,
4.423,0.17,,
4.424,-0.04,,
4.425,-0.26,,
4.426,-0.54,,
4.427,-0.41,,
4.428,-0.03,,
4.429,-0.05,,
4.43,-0.45,,
4.431,-0.07,,
4.432,0.08,,
4.433,0.13,,
4.434,0.33,,
4.435,0.75,,
4.436,0.37,,
4.437,0.1,,
4.438,0.08,,
4.439,-0.14,,
4.44,-0.14,,
4.441,0.18,,
4.442,-0.01,,
4.443,-0.12,,
4.444,0.17,,
4.445,0.05,,
4.446,0.03,,
4.447,0.2,,
4.448,0.08,,
4.449,-0.04,,
4.45,-0.12,,
4.451,-0.01,,
4.452,0.16,,
4.453,-0.08,,
4.454,-0.13,,
4.455,0.18,,
4.456,0.21,,
4.457,-0.05,,
4.458,0.06,,
4.459,0.09,,
4.46,0.04,,
4.461,-0.07,,
4.462,-0.06,,
4.463,-0.03,,
4.464,0.06,,
4.465,0.16,,
4.466,0.09,,
4.467,-0.06,,
4.468,-0.3,,
4.469,-0.59,,
4.47,-0.15,,
4.471,0.52,,
4.472,0.11,,
4.473,-0.06,,
4.474,-0.46,,
4.475,-0.51,,
4.476,-0.54,,
4.477,-0.62,,
4.478,-0.84,,
4.479,-0.71,,
4.48,-0.31,,
4.481,0.85,,
4.482,0.79,,
4.483,0.64,,
4.484,0.71,,
4.485,0.43,,
4.486,0.26,,
4.487,0.63,,
4.488,0.6,,
4.489,0.4,,
4.49,0.2,,
4.491,-0.21,,
4.492,-0.4,,
4.493,-0.2,,
4.494,-0.04,,
4.495,-0.32,,
4.496,-0.43,,
4.497,-0.13,,
4.498,0.21,,
4.499,0.32,,
4.5,0.32,,
4.501,0.06,,
4.502,-0.1,,
4.503,-0.06,,
4.504,0.02,,
4.505,0.04,,
4.506,-0.06,,
4.507,-0.15,,
4.508,-0.14,,
4.509,-0.13,,
4.51,0.03,,
4.511,0.15,,
4.512,0.08,,
4.513,-0.08,,
4.514,-0.13,,
4.515,-0.21,,
4.516,-0.13,,
4.517,-0.06,,
4.518,-0.1,,
4.519,-0.39,,
4.52,-0.23,,
4.521,0.26,,
4.522,-0.04,,
4.523,0,,
4.524,-0.01,,
4.525,-0.06,,
4.526,0.02,,
4.527,0.02,,
4.528,-0.01,,
4.529,0.06,,
4.53,0.35,,
4.531,0.6,,
4.532,0.29,,
4.533,-0.1,,
4.534,-0.38,,
4.535,-0.52,,
4.536,-0.77,,
4.537,-0.71,,
4.538,-0.31,,
4.539,0.06,,
4.54,0.35,,
4.541,0.31,,
4.542,0.47,,
4.543,0.18,,
4.544,0.1,,
4.545,0.52,,
4.546,0.72,,
4.547,0.45,,
4.548,0,,
4.549,-0.17,,
4.55,0.06,,
4.551,0.2,,
4.552,-0.06,,
4.553,-0.06,,
4.554,0.04,,
4.555,0.06,,
4.556,-0.14,,
4.557,-0.26,,
4.558,-0.22,,
4.559,-0.34,,
4.56,-0.52,,
4.561,-0.26,,
4.562,-0.02,,
4.563,0.06,,
4.564,-0.06,,
4.565,-0.01,,
4.566,0.29,,
4.567,0.2,,
4.568,0.01,,
4.569,0.09,,
4.57,0.15,,
4.571,0.19,,
4.572,0.08,,
4.573,-0.03,,
4.574,-0.11,,
4.575,-0.23,,
4.576,0.09,,
4.577,0.2,,
4.578,-0.05,,
4.579,-0.17,,
4.58,-0.13,,
4.581,-0.05,,
4.582,0,,
4.583,0.02,,
4.584,0.1,,
4.585,0.01,,
4.586,-0.09,,
4.587,-0.06,,
4.588,0.01,,
4.589,0.03,,
4.59,-0.03,,
4.591,-0.03,,
4.592,-0.02,,
4.593,-0.08,,
4.594,-0.03,,
4.595,0.25,,
4.596,0.22,,
4.597,-0.11,,
4.598,-0.12,,
4.599,-0.39,,
4.6,-0.28,,
4.601,0.11,,
4.602,0.11,,
4.603,0,,
4.604,0.13,,
4.605,0.29,,
4.606,0.13,,
4.607,0.09,,
4.608,-0.06,,
4.609,-0.16,,
4.61,-0.16,,
4.611,-0.14,,
4.612,-0.54,,
4.613,-0.87,,
4.614,-0.6,,
4.615,-0.23,,
4.616,0.21,,
4.617,-0.03,,
4.618,0.47,,
4.619,1.02,,
4.62,0.84,,
4.621,0.5,,
4.622,0.21,,
4.623,0.1,,
4.624,0.02,,
4.625,-0.02,,
4.626,0.03,,
4.627,0.08,,
4.628,0.05,,
4.629,0.05,,
4.63,0.01,,
4.631,-0.01,,
4.632,-0.04,,
4.633,-0.03,,
4.634,-0.06,,
4.635,-0.09,,
4.636,-0.09,,
4.637,-0.02,,
4.638,-0.13,,
4.639,0.02,,
4.64,0.04,,
4.641,-0.1,,
4.642,-0.1,,
4.643,-0.1,,
4.644,-0.11,,
4.645,-0.13,,
4.646,-0.11,,
4.647,-0.11,,
4.648,-0.08,,
4.649,0.05,,
4.65,-0.17,,
4.651,-0.25,,
4.652,-0.03,,
4.653,-0.32,,
4.654,-0.24,,
4.655,0.14,,
4.656,0.39,,
4.657,0.42,,
4.658,0.16,,
4.659,0.05,,
4.66,0.02,,
4.661,0.01,,
4.662,0.07,,
4.663,-0.06,,
4.664,-0.07,,
4.665,-0.06,,
4.666,-0.35,,
4.667,-0.9,,
4.668,-0.9,,
4.669,-0.32,,
4.67,0.05,,
4.671,0.03,,
4.672,0.11,,
4.673,0.63,,
4.674,1.17,,
4.675,0.83,,
4.676,0.51,,
4.677,0.33,,
4.678,0.26,,
4.679,0.09,,
4.68,-0.02,,
4.681,-0.07,,
4.682,-0.11,,
4.683,-0.2,,
4.684,-0.19,,
4.685,-0.19,,
4.686,-0.1,,
4.687,-0.06,,
4.688,0.09,,
4.689,0.08,,
4.69,0.15,,
4.691,0.11,,
4.692,-0.03,,
4.693,-0.12,,
4.694,-0.04,,
4.695,-0.14,,
4.696,-0.06,,
4.697,0.14,,
4.698,0.04,,
4.699,-0.03,,
4.7,-0.16,,
4.701,-0.21,,
4.702,-0.13,,
4.703,-0.09,,
4.704,-0.14,,
4.705,-0.09,,
4.706,-0.1,,
4.707,-0.11,,
4.708,-0.18,,
4.709,-0.43,,
4.71,-0.47,,
4.711,-0.19,,
4.712,-0.07,,
4.713,-0.02,,
4.714,0.34,,
4.715,0.51,,
4.716,0.63,,
4.717,0.48,,
4.718,0.31,,
4.719,0.1,,
4.72,0,,
4.721,-0.05,,
4.722,-0.1,,
4.723,-0.15,,
4.724,-0.16,,
4.725,-0.18,,
4.726,-0.35,,
4.727,-0.05,,
4.728,0.17,,
4.729,-0.01,,
4.73,-0.11,,
4.731,-0.03,,
4.732,0.09,,
4.733,0.24,,
4.734,0.24,,
4.735,0.06,,
4.736,-0.22,,
4.737,-0.25,,
4.738,0.06,,
4.739,0.3,,
4.74,0.29,,
4.741,0,,
4.742,-0.01,,
4.743,0.07,,
4.744,-0.17,,
4.745,-0.04,,
4.746,-0.01,,
4.747,-0.02,,
4.748,-0.01,,
4.749,-0.04,,
4.75,-0.05,,
4.751,0.01,,
4.752,0.06,,
4.753,0.07,,
4.754,0.09,,
4.755,0.05,,
4.756,0.02,,
4.757,0.02,,
4.758,0.03,,
4.759,0.01,,
4.76,0.03,,
4.761,0.01,,
4.762,-0.03,,
4.763,-0.09,,
4.764,-0.1,,
4.765,-0.1,,
4.766,-0.12,,
4.767,-0.12,,
4.768,-0.08,,
4.769,-0.01,,
4.77,0.01,,
4.771,0.02,,
4.772,0.04,,
4.773,0.07,,
4.774,0.1,,
4.775,0.06,,
4.776,0.09,,
4.777,0.08,,
4.778,0.04,,
4.779,-0.13,,
4.78,-0.29,,
4.781,-0.18,,
4.782,-0.1,,
4.783,-0.16,,
4.784,0.02,,
4.785,0.01,,
4.786,0.02,,
4.787,0.1,,
4.788,0.07,,
4.789,0,,
4.79,0.03,,
4.791,0.03,,
4.792,0.01,,
4.793,0,,
4.794,0.01,,
4.795,0.09,,
4.796,0.19,,
4.797,0.11,,
4.798,0.04,,
4.799,0.04,,
4.8,-0.03,,
4.801,-0.07,,
4.802,-0.01,,
4.803,0.06,,
4.804,0.01,,
4.805,-0.1,,
4.806,-0.16,,
4.807,-0.11,,
4.808,-0.1,,
4.809,0.02,,
4.81,0.14,,
4.811,0.01,,
4.812,-0.1,,
4.813,-0.02,,
4.814,0.07,,
4.815,-0.05,,
4.816,-0.39,,
4.817,-0.43,,
4.818,-0.21,,
4.819,-0.11,,
4.82,0.03,,
4.821,0.37,,
4.822,0.45,,
4.823,0.3,,
4.824,0.11,,
4.825,0.01,,
4.826,-0.02,,
4.827,-0.07,,
4.828,-0.06,,
4.829,-0.07,,
4.83,-0.07,,
4.831,-0.01,,
4.832,0.01,,
4.833,0,,
4.834,0.03,,
4.835,0.02,,
4.836,0.1,,
4.837,0.09,,
4.838,0.07,,
4.839,0.1,,
4.84,0.06,,
4.841,-0.01,,
4.842,-0.06,,
4.843,-0.09,,
4.844,-0.1,,
4.845,-0.09,,
4.846,-0.1,,
4.847,-0.09,,
4.848,-0.09,,
4.849,-0.12,,
4.85,-0.08,,
4.851,-0.04,,
4.852,0,,
4.853,0.04,,
4.854,0.09,,
4.855,0.05,,
4.856,0.06,,
4.857,0.06,,
4.858,0.02,,
4.859,-0.02,,
4.86,-0.02,,
4.861,-0.02,,
4.862,0.03,,
4.863,0.11,,
4.864,-0.06,,
4.865,-0.05,,
4.866,-0.01,,
4.867,-0.05,,
4.868,-0.07,,
4.869,-0.11,,
4.87,-0.1,,
4.871,-0.02,,
4.872,0,,
4.873,0.03,,
4.874,0.05,,
4.875,0.06,,
4.876,0.04,,
4.877,0,,
4.878,-0.01,,
4.879,0,,
4.88,-0.02,,
4.881,0.02,,
4.882,0.01,,
4.883,0,,
4.884,0,,
4.885,0,,
4.886,-0.02,,
4.887,-0.04,,
4.888,-0.05,,
4.889,-0.13,,
4.89,-0.16,,
4.891,-0.07,,
4.892,-0.06,,
4.893,0.01,,
4.894,-0.04,,
4.895,-0.01,,
4.896,0.06,,
4.897,0.19,,
4.898,0.15,,
4.899,0.08,,
4.9,0.06,,
4.901,0.02,,
4.902,-0.03,,
4.903,-0.04,,
4.904,-0.04,,
4.905,-0.09,,
4.906,-0.1,,
4.907,-0.08,,
4.908,-0.05,,
4.909,-0.03,,
4.91,-0.05,,
4.911,-0.04,,
4.912,-0.05,,
4.913,-0.02,,
4.914,0.02,,
4.915,0.08,,
4.916,0.04,,
4.917,0.01,,
4.918,-0.05,,
4.919,-0.08,,
4.92,-0.07,,
4.921,-0.05,,
4.922,-0.05,,
4.923,-0.03,,
4.924,0.02,,
4.925,0.12,,
4.926,0.09,,
4.927,0.02,,
4.928,-0.06,,
4.929,-0.13,,
4.93,-0.15,,
4.931,-0.19,,
4.932,-0.22,,
4.933,-0.21,,
4.934,-0.13,,
4.935,0.01,,
4.936,0.1,,
4.937,0.22,,
4.938,0.2,,
4.939,0.06,,
4.94,-0.06,,
4.941,-0.18,,
4.942,-0.32,,
4.943,-0.47,,
4.944,-0.4,,
4.945,-0.23,,
4.946,-0.02,,
4.947,0.13,,
4.948,0.09,,
4.949,0.04,,
4.95,0,,
4.951,-0.1,,
4.952,-0.15,,
4.953,-0.1,,
4.954,-0.02,,
4.955,-0.02,,
4.956,0.12,,
4.957,0.18,,
4.958,0.11,,
4.959,0.11,,
4.96,0.09,,
4.961,0.08,,
4.962,-0.02,,
4.963,-0.05,,
4.964,-0.02,,
4.965,0.05,,
4.966,-0.12,,
4.967,-0.14,,
4.968,-0.14,,
4.969,-0.21,,
4.97,-0.33,,
4.971,-0.38,,
4.972,-0.15,,
4.973,0.07,,
4.974,0.14,,
4.975,0.22,,
4.976,0.19,,
4.977,0.18,,
4.978,0.15,,
4.979,0.01,,
4.98,-0.18,,
4.981,-0.03,,
4.982,0.17,,
4.983,0.12,,
4.984,0.07,,
4.985,0.12,,
4.986,0.15,,
4.987,0,,
4.988,-0.14,,
4.989,-0.23,,
4.99,-0.23,,
4.991,-0.06,,
4.992,-0.13,,
4.993,-0.25,,
4.994,-0.26,,
4.995,-0.12,,
4.996,-0.02,,
4.997,0.1,,
4.998,0.17,,
4.999,0.21,,
5,0.18,,
5.001,0.1,,
5.002,0.09,,
5.003,0.16,,
5.004,0.1,,
5.005,0,,
5.006,0,,
5.007,0.05,,
5.008,0.1,,
5.009,0.1,,
5.01,0.04,,
5.011,-0.07,,
5.012,-0.2,,
5.013,-0.22,,
5.014,-0.15,,
5.015,-0.05,,
5.016,0.01,,
5.017,0.06,,
5.018,0.07,,
5.019,0.09,,
5.02,0.14,,
5.021,0.17,,
5.022,0.16,,
5.023,0.16,,
5.024,0.13,,
5.025,0.05,,
5.026,-0.02,,
5.027,-0.04,,
5.028,-0.06,,
5.029,-0.08,,
5.03,-0.08,,
5.031,-0.05,,
5.032,-0.06,,
5.033,-0.05,,
5.034,-0.02,,
5.035,-0.01,,
5.036,0.03,,
5.037,0.05,,
5.038,0.08,,
5.039,0.11,,
5.04,0.11,,
5.041,0.08,,
5.042,0.03,,
5.043,0.02,,
5.044,0,,
5.045,0.01,,
5.046,0.03,,
5.047,0.02,,
5.048,-0.01,,
5.049,-0.06,,
5.05,-0.07,,
5.051,-0.09,,
5.052,-0.08,,
5.053,-0.07,,
5.054,-0.04,,
5.055,0,,
5.056,0,,
5.057,0.02,,
5.058,0.05,,
5.059,0.08,,
5.06,0.04,,
5.061,0.06,,
5.062,0.07,,
5.063,0.06,,
5.064,0.04,,
5.065,0.04,,
5.066,0.05,,
5.067,0.04,,
5.068,0,,
5.069,-0.03,,
5.07,-0.07,,
5.071,-0.08,,
5.072,-0.13,,
5.073,-0.14,,
5.074,-0.13,,
5.075,-0.11,,
5.076,-0.05,,
5.077,-0.02,,
5.078,0.03,,
5.079,0.06,,
5.08,0.07,,
5.081,0.1,,
5.082,0.09,,
5.083,0.07,,
5.084,0.05,,
5.085,0.05,,
5.086,0.05,,
5.087,0.06,,
5.088,0.02,,
5.089,-0.03,,
5.09,-0.04,,
5.091,-0.07,,
5.092,-0.07,,
5.093,-0.08,,
5.094,-0.09,,
5.095,-0.08,,
5.096,-0.03,,
5.097,0.01,,
5.098,0.03,,
5.099,0.08,,
5.1,0.12,,
5.101,0.1,,
5.102,0.09,,
5.103,0.09,,
5.104,0.09,,
5.105,0.06,,
5.106,0.05,,
5.107,0.04,,
5.108,0.02,,
5.109,-0.01,,
5.11,-0.03,,
5.111,-0.09,,
5.112,-0.11,,
5.113,-0.11,,
5.114,-0.1,,
5.115,-0.09,,
5.116,-0.04,,
5.117,-0.04,,
5.118,0.01,,
5.119,0.05,,
5.12,0.06,,
5.121,0.08,,
5.122,0.07,,
5.123,0.06,,
5.124,0.05,,
5.125,0.06,,
5.126,0.04,,
5.127,0.02,,
5.128,0.02,,
5.129,0.01,,
5.13,-0.04,,
5.131,-0.08,,
5.132,-0.07,,
5.133,-0.08,,
5.134,-0.09,,
5.135,-0.1,,
5.136,-0.07,,
5.137,-0.01,,
5.138,0.01,,
5.139,0.02,,
5.14,0.06,,
5.141,0.08,,
5.142,0.07,,
5.143,0.08,,
5.144,0.09,,
5.145,0.06,,
5.146,0.06,,
5.147,0.04,,
5.148,0.05,,
5.149,0,,
5.15,-0.03,,
5.151,-0.08,,
5.152,-0.1,,
5.153,-0.13,,
5.154,-0.12,,
5.155,-0.09,,
5.156,-0.09,,
5.157,-0.05,,
5.158,-0.01,,
5.159,0.05,,
5.16,0.04,,
5.161,0.06,,
5.162,0.04,,
5.163,0.05,,
5.164,0.05,,
5.165,0.01,,
5.166,0.03,,
5.167,0.05,,
5.168,0.02,,
5.169,0.02,,
5.17,0.01,,
5.171,-0.02,,
5.172,-0.03,,
5.173,-0.08,,
5.174,-0.08,,
5.175,-0.06,,
5.176,-0.09,,
5.177,-0.07,,
5.178,-0.05,,
5.179,-0.01,,
5.18,0.01,,
5.181,0.05,,
5.182,0.06,,
5.183,0.05,,
5.184,0.07,,
5.185,0.05,,
5.186,0.09,,
5.187,0.07,,
5.188,0.05,,
5.189,0.02,,
5.19,0,,
5.191,-0.03,,
5.192,-0.07,,
5.193,-0.1,,
5.194,-0.12,,
5.195,-0.11,,
5.196,-0.11,,
5.197,-0.11,,
5.198,-0.08,,
5.199,-0.03,,
5.2,0,,
5.201,0.05,,
5.202,0.1,,
5.203,0.06,,
5.204,0.08,,
5.205,0.06,,
5.206,0.06,,
5.207,0.01,,
5.208,0.05,,
5.209,0.03,,
5.21,0.01,,
5.211,0,,
5.212,-0.01,,
5.213,-0.06,,
5.214,-0.08,,
5.215,-0.1,,
5.216,-0.1,,
5.217,-0.08,,
5.218,-0.06,,
5.219,-0.04,,
5.22,-0.01,,
5.221,0.05,,
5.222,0.08,,
5.223,0.07,,
5.224,0.06,,
5.225,0.06,,
5.226,0.06,,
5.227,0.04,,
5.228,0.04,,
5.229,0.05,,
5.23,0.02,,
5.231,0.01,,
5.232,0,,
5.233,-0.05,,
5.234,-0.06,,
5.235,-0.06,,
5.236,-0.11,,
5.237,-0.11,,
5.238,-0.09,,
5.239,-0.06,,
5.24,-0.01,,
5.241,-0.02,,
5.242,0.04,,
5.243,0.09,,
5.244,0.09,,
5.245,0.07,,
5.246,0.03,,
5.247,0.04,,
5.248,0.04,,
5.249,0.03,,
5.25,0.03,,
5.251,0.01,,
5.252,-0.01,,
5.253,-0.03,,
5.254,-0.04,,
5.255,-0.08,,
5.256,-0.1,,
5.257,-0.12,,
5.258,-0.1,,
5.259,-0.06,,
5.26,-0.04,,
5.261,0.03,,
5.262,0.02,,
5.263,0.05,,
5.264,0.05,,
5.265,0.06,,
5.266,0.07,,
5.267,0.03,,
5.268,0.07,,
5.269,0.05,,
5.27,0.03,,
5.271,0.02,,
5.272,0,,
5.273,-0.03,,
5.274,-0.06,,
5.275,-0.06,,
5.276,-0.11,,
5.277,-0.09,,
5.278,-0.11,,
5.279,-0.08,,
5.28,-0.05,,
5.281,-0.02,,
5.282,0,,
5.283,0.01,,
5.284,0.03,,
5.285,0.06,,
5.286,0.05,,
5.287,0.06,,
5.288,0.03,,
5.289,0.06,,
5.29,0.04,,
5.291,0.04,,
5.292,0,,
5.293,-0.01,,
5.294,-0.05,,
5.295,-0.06,,
5.296,-0.06,,
5.297,-0.09,,
5.298,-0.08,,
5.299,-0.08,,
5.3,-0.05,,
5.301,-0.04,,
5.302,-0.01,,
5.303,0.02,,
5.304,0.05,,
5.305,0.07,,
5.306,0.07,,
5.307,0.09,,
5.308,0.07,,
5.309,0.06,,
5.31,0.04,,
5.311,0.03,,
5.312,0.02,,
5.313,0,,
5.314,-0.02,,
5.315,-0.05,,
5.316,-0.06,,
5.317,-0.09,,
5.318,-0.1,,
5.319,-0.1,,
5.32,-0.09,,
5.321,-0.06,,
5.322,-0.04,,
5.323,-0.01,,
5.324,0.02,,
5.325,0.07,,
5.326,0.05,,
5.327,0.05,,
5.328,0.07,,
5.329,0.05,,
5.33,0.04,,
5.331,0.02,,
5.332,0.03,,
5.333,0.03,,
5.334,-0.02,,
5.335,-0.04,,
5.336,-0.05,,
5.337,-0.1,,
5.338,-0.12,,
5.339,-0.11,,
5.34,-0.09,,
5.341,-0.06,,
5.342,-0.04,,
5.343,-0.01,,
5.344,0.01,,
5.345,0.06,,
5.346,0.08,,
5.347,0.09,,
5.348,0.06,,
5.349,0.07,,
5.35,0.07,,
5.351,0.06,,
5.352,0.03,,
5.353,0.03,,
5.354,-0.02,,
5.355,-0.03,,
5.356,-0.06,,
5.357,-0.05,,
5.358,-0.09,,
5.359,-0.09,,
5.36,-0.08,,
5.361,-0.05,,
5.362,-0.05,,
5.363,0.01,,
5.364,0.02,,
5.365,0.06,,
5.366,0.09,,
5.367,0.09,,
5.368,0.07,,
5.369,0.05,,
5.37,0.02,,
5.371,0.01,,
5.372,-0.03,,
5.373,-0.07,,
5.374,-0.08,,
5.375,-0.11,,
5.376,-0.14,,
5.377,-0.18,,
5.378,-0.21,,
5.379,-0.18,,
5.38,-0.18,,
5.381,-0.13,,
5.382,-0.05,,
5.383,0.05,,
5.384,0.14,,
5.385,0.16,,
5.386,0.17,,
5.387,0.15,,
5.388,0.14,,
5.389,0.13,,
5.39,0.1,,
5.391,0.12,,
5.392,0.08,,
5.393,0.06,,
5.394,0.02,,
5.395,0.01,,
5.396,0,,
5.397,-0.03,,
5.398,-0.1,,
5.399,-0.13,,
5.4,-0.13,,
5.401,-0.15,,
5.402,-0.13,,
5.403,-0.08,,
5.404,-0.03,,
5.405,-0.02,,
5.406,-0.01,,
5.407,0.01,,
5.408,0.01,,
5.409,-0.01,,
5.41,-0.03,,
5.411,-0.04,,
5.412,-0.06,,
5.413,-0.07,,
5.414,-0.11,,
5.415,-0.19,,
5.416,-0.19,,
5.417,-0.06,,
5.418,0.1,,
5.419,0.16,,
5.42,0.08,,
5.421,-0.05,,
5.422,-0.15,,
5.423,-0.16,,
5.424,-0.14,,
5.425,-0.07,,
5.426,-0.02,,
5.427,0,,
5.428,0.06,,
5.429,0.1,,
5.43,0.13,,
5.431,0.17,,
5.432,0.26,,
5.433,0.25,,
5.434,0.05,,
5.435,-0.08,,
5.436,-0.19,,
5.437,-0.17,,
5.438,-0.3,,
5.439,-0.35,,
5.44,-0.41,,
5.441,-0.51,,
5.442,-0.76,,
5.443,-0.67,,
5.444,-0.02,,
5.445,0.32,,
5.446,0.61,,
5.447,0.82,,
5.448,0.7,,
5.449,0.32,,
5.45,-0.06,,
5.451,-0.09,,
5.452,-0.04,,
5.453,0.1,,
5.454,0.16,,
5.455,-0.33,,
5.456,-0.71,,
5.457,-0.74,,
5.458,-0.18,,
5.459,0.16,,
5.46,0.02,,
5.461,-0.11,,
5.462,-0.13,,
5.463,0.23,,
5.464,0.6,,
5.465,0.15,,
5.466,-0.34,,
5.467,-0.64,,
5.468,-0.43,,
5.469,-0.05,,
5.47,0.04,,
5.471,0.01,,
5.472,-0.27,,
5.473,0.09,,
5.474,0.58,,
5.475,0.61,,
5.476,0.51,,
5.477,-0.08,,
5.478,-0.15,,
5.479,0.44,,
5.48,0.47,,
5.481,0.15,,
5.482,-0.21,,
5.483,-0.09,,
5.484,0.08,,
5.485,-0.07,,
5.486,-0.16,,
5.487,-0.02,,
5.488,-0.11,,
5.489,-0.35,,
5.49,-0.15,,
5.491,-0.01,,
5.492,-0.25,,
5.493,-0.41,,
5.494,-0.64,,
5.495,-0.27,,
5.496,0.23,,
5.497,0.01,,
5.498,0.11,,
5.499,0.25,,
5.5,0.04,,
5.501,0.23,,
5.502,0.56,,
5.503,1.44,,
5.504,0.59,,
5.505,-0.29,,
5.506,-0.42,,
5.507,-0.44,,
5.508,-0.45,,
5.509,-0.03,,
5.51,0.44,,
5.511,0.64,,
5.512,0.59,,
5.513,0.27,,
5.514,0.12,,
5.515,0.19,,
5.516,0.61,,
5.517,0.46,,
5.518,-0.02,,
5.519,-0.17,,
5.52,0.5,,
5.521,0.28,,
5.522,-0.35,,
5.523,-0.61,,
5.524,0.04,,
5.525,0.43,,
5.526,-0.11,,
5.527,-0.48,,
5.528,-0.19,,
5.529,0.13,,
5.53,-0.41,,
5.531,-0.22,,
5.532,-0.46,,
5.533,-0.52,,
5.534,-0.96,,
5.535,-1.05,,
5.536,-0.35,,
5.537,0.53,,
5.538,0.95,,
5.539,0.78,,
5.54,0.2,,
5.541,-0.37,,
5.542,-0.21,,
5.543,0.42,,
5.544,0.15,,
5.545,-0.09,,
5.546,0.03,,
5.547,0.36,,
5.548,0.3,,
5.549,0.07,,
5.55,0.06,,
5.551,0.15,,
5.552,0.21,,
5.553,0.22,,
5.554,0.05,,
5.555,-0.05,,
5.556,-0.04,,
5.557,-0.07,,
5.558,-0.31,,
5.559,-0.45,,
5.56,-0.61,,
5.561,-0.6,,
5.562,0.04,,
5.563,0.1,,
5.564,-0.15,,
5.565,-0.02,,
5.566,0.1,,
5.567,0.31,,
5.568,0.54,,
5.569,0.19,,
5.57,0.05,,
5.571,0.02,,
5.572,0.07,,
5.573,0.08,,
5.574,0.25,,
5.575,-0.13,,
5.576,-0.69,,
5.577,-0.59,,
5.578,-0.06,,
5.579,-0.08,,
5.58,0,,
5.581,-0.36,,
5.582,-0.46,,
5.583,-0.84,,
5.584,-1.12,,
5.585,-0.84,,
5.586,-0.71,,
5.587,-0.1,,
5.588,0.15,,
5.589,-0.32,,
5.59,0.43,,
5.591,0.99,,
5.592,1.09,,
5.593,1.22,,
5.594,1.32,,
5.595,0.77,,
5.596,0.53,,
5.597,0.33,,
5.598,0.06,,
5.599,-0.03,,
5.6,-0.12,,
5.601,-0.01,,
5.602,0.1,,
5.603,0.07,,
5.604,-0.27,,
5.605,-0.35,,
5.606,-0.31,,
5.607,-0.22,,
5.608,0.11,,
5.609,-0.06,,
5.61,0.01,,
5.611,0.01,,
5.612,0.05,,
5.613,-0.2,,
5.614,-0.33,,
5.615,-0.46,,
5.616,-0.34,,
5.617,-0.19,,
5.618,-0.3,,
5.619,-0.06,,
5.62,0.14,,
5.621,0.1,,
5.622,0.17,,
5.623,-0.02,,
5.624,-0.39,,
5.625,-0.33,,
5.626,0.11,,
5.627,-0.03,,
5.628,-0.72,,
5.629,-0.59,,
5.63,-0.06,,
5.631,0.64,,
5.632,0.49,,
5.633,0.02,,
5.634,-0.11,,
5.635,0.15,,
5.636,0.42,,
5.637,0.66,,
5.638,0.22,,
5.639,0.03,,
5.64,0.33,,
5.641,0.24,,
5.642,-0.41,,
5.643,-0.82,,
5.644,-0.96,,
5.645,-0.81,,
5.646,-0.45,,
5.647,-0.37,,
5.648,0.4,,
5.649,0.92,,
5.65,0.7,,
5.651,0.34,,
5.652,0.27,,
5.653,0.46,,
5.654,0.47,,
5.655,0.1,,
5.656,0.11,,
5.657,0.07,,
5.658,-0.07,,
5.659,-0.39,,
5.66,-0.62,,
5.661,-0.5,,
5.662,-0.28,,
5.663,-0.86,,
5.664,-0.84,,
5.665,0.04,,
5.666,1.08,,
5.667,-0.01,,
5.668,-0.3,,
5.669,0.32,,
5.67,0.41,,
5.671,0.58,,
5.672,0.72,,
5.673,0.37,,
5.674,-0.19,,
5.675,-0.71,,
5.676,-0.81,,
5.677,-0.15,,
5.678,-0.17,,
5.679,-0.02,,
5.68,0.08,,
5.681,-0.06,,
5.682,0.31,,
5.683,0.68,,
5.684,-0.09,,
5.685,-0.55,,
5.686,-0.3,,
5.687,0.46,,
5.688,0.34,,
5.689,0.14,,
5.69,-0.05,,
5.691,0.02,,
5.692,-0.05,,
5.693,-0.29,,
5.694,-0.7,,
5.695,-0.55,,
5.696,-0.15,,
5.697,-0.24,,
5.698,0.23,,
5.699,0.46,,
5.7,0.32,,
5.701,0.34,,
5.702,0.59,,
5.703,0.54,,
5.704,0.51,,
5.705,0.19,,
5.706,0.14,,
5.707,0.04,,
5.708,-0.37,,
5.709,-0.68,,
5.71,-0.52,,
5.711,-0.21,,
5.712,-0.05,,
5.713,-0.27,,
5.714,-0.24,,
5.715,0.03,,
5.716,0.17,,
5.717,0.51,,
5.718,0.39,,
5.719,0.31,,
5.72,0.16,,
5.721,-0.08,,
5.722,-0.24,,
5.723,-0.39,,
5.724,-0.42,,
5.725,-0.22,,
5.726,-0.01,,
5.727,-0.18,,
5.728,0.28,,
5.729,0.17,,
5.73,-0.16,,
5.731,-0.47,,
5.732,-0.44,,
5.733,-0.39,,
5.734,0.18,,
5.735,0.73,,
5.736,0.75,,
5.737,0.32,,
5.738,0.19,,
5.739,-0.14,,
5.74,-0.48,,
5.741,-0.28,,
5.742,-0.07,,
5.743,-0.22,,
5.744,-0.08,,
5.745,-0.2,,
5.746,-0.1,,
5.747,-0.11,,
5.748,-0.19,,
5.749,-0.22,,
5.75,-0.25,,
5.751,-0.45,,
5.752,-0.09,,
5.753,0.52,,
5.754,0.99,,
5.755,0.69,,
5.756,0.45,,
5.757,0.3,,
5.758,0.2,,
5.759,0.01,,
5.76,-0.08,,
5.761,0.12,,
5.762,0.28,,
5.763,0.05,,
5.764,-0.14,,
5.765,-0.29,,
5.766,-0.22,,
5.767,-0.26,,
5.768,-0.18,,
5.769,-0.08,,
5.77,-0.12,,
5.771,-0.07,,
5.772,-0.02,,
5.773,0.16,,
5.774,-0.05,,
5.775,-0.14,,
5.776,0.03,,
5.777,-0.12,,
5.778,-0.52,,
5.779,-0.23,,
5.78,0.13,,
5.781,0.2,,
5.782,0.32,,
5.783,0.22,,
5.784,-0.07,,
5.785,0.18,,
5.786,0.82,,
5.787,-0.07,,
5.788,-0.4,,
5.789,-0.52,,
5.79,-0.45,,
5.791,-0.28,,
5.792,-0.42,,
5.793,-0.54,,
5.794,-0.27,,
5.795,0.27,,
5.796,0.04,,
5.797,-0.19,,
5.798,-0.08,,
5.799,-0.08,,
5.8,0.15,,
5.801,0.53,,
5.802,0.49,,
5.803,0.58,,
5.804,0.46,,
5.805,0.29,,
5.806,-0.02,,
5.807,-0.18,,
5.808,-0.49,,
5.809,-0.58,,
5.81,-0.5,,
5.811,-0.45,,
5.812,-0.04,,
5.813,0.51,,
5.814,0.53,,
5.815,0.18,,
5.816,0.17,,
5.817,0.28,,
5.818,0.19,,
5.819,0.06,,
5.82,-0.08,,
5.821,-0.24,,
5.822,-0.1,,
5.823,0,,
5.824,0.24,,
5.825,0.15,,
5.826,-0.14,,
5.827,-0.25,,
5.828,-0.04,,
5.829,-0.05,,
5.83,-0.02,,
5.831,0.06,,
5.832,-0.11,,
5.833,-0.14,,
5.834,0.11,,
5.835,0.36,,
5.836,0.19,,
5.837,0.08,,
5.838,0.07,,
5.839,0.09,,
5.84,0.1,,
5.841,0.06,,
5.842,0.04,,
5.843,0.05,,
5.844,-0.02,,
5.845,-0.12,,
5.846,-0.25,,
5.847,-0.36,,
5.848,-0.4,,
5.849,-0.24,,
5.85,-0.18,,
5.851,-0.14,,
5.852,-0.29,,
5.853,-0.1,,
5.854,0.18,,
5.855,0.06,,
5.856,-0.31,,
5.857,-0.09,,
5.858,0.14,,
5.859,0.28,,
5.86,0.28,,
5.861,0.11,,
5.862,-0.2,,
5.863,-0.01,,
5.864,0.37,,
5.865,-0.13,,
5.866,-0.05,,
5.867,0.03,,
5.868,0.08,,
5.869,0.41,,
5.87,0.09,,
5.871,-0.04,,
5.872,0.04,,
5.873,0.05,,
5.874,-0.46,,
5.875,-0.41,,
5.876,0.16,,
5.877,0.21,,
5.878,0.14,,
5.879,-0.01,,
5.88,-0.21,,
5.881,-0.53,,
5.882,-0.15,,
5.883,0.14,,
5.884,0.03,,
5.885,0.15,,
5.886,0.3,,
5.887,0.25,,
5.888,0.32,,
5.889,0.21,,
5.89,-0.03,,
5.891,-0.19,,
5.892,-0.19,,
5.893,0,,
5.894,-0.03,,
5.895,-0.12,,
5.896,-0.27,,
5.897,-0.14,,
5.898,0.02,,
5.899,-0.13,,
5.9,-0.18,,
5.901,0.05,,
5.902,0.01,,
5.903,-0.17,,
5.904,-0.15,,
5.905,-0.1,,
5.906,0.17,,
5.907,0.36,,
5.908,0.41,,
5.909,0.27,,
5.91,0.21,,
5.911,0.06,,
5.912,-0.13,,
5.913,-0.25,,
5.914,-0.19,,
5.915,-0.2,,
5.916,0.05,,
5.917,-0.1,,
5.918,0.07,,
5.919,0.16,,
5.92,0.22,,
5.921,0.24,,
5.922,0.17,,
5.923,0.08,,
5.924,0.03,,
5.925,0,,
5.926,-0.04,,
5.927,-0.07,,
5.928,-0.07,,
5.929,-0.09,,
5.93,-0.09,,
5.931,-0.14,,
5.932,-0.38,,
5.933,-0.54,,
5.934,-0.36,,
5.935,-0.39,,
5.936,-0.38,,
5.937,-0.47,,
5.938,-0.45,,
5.939,-0.04,,
5.94,0.56,,
5.941,0.66,,
5.942,0.86,,
5.943,0.76,,
5.944,0.35,,
5.945,0.26,,
5.946,0.16,,
5.947,0.02,,
5.948,0,,
5.949,0.09,,
5.95,0.01,,
5.951,-0.1,,
5.952,-0.24,,
5.953,-0.27,,
5.954,-0.4,,
5.955,-0.53,,
5.956,-0.49,,
5.957,-0.75,,
5.958,-0.56,,
5.959,0.13,,
5.96,0.34,,
5.961,0.04,,
5.962,-0.03,,
5.963,0.56,,
5.964,0.86,,
5.965,0.59,,
5.966,0.39,,
5.967,0.17,,
5.968,0.17,,
5.969,0.05,,
5.97,0.02,,
5.971,-0.03,,
5.972,-0.09,,
5.973,-0.13,,
5.974,-0.13,,
5.975,-0.27,,
5.976,-0.37,,
5.977,-0.23,,
5.978,-0.08,,
5.979,0.05,,
5.98,-0.1,,
5.981,-0.1,,
5.982,0.08,,
5.983,0.07,,
5.984,0,,
5.985,0.23,,
5.986,0.3,,
5.987,0.2,,
5.988,0.12,,
5.989,0.05,,
5.99,-0.03,,
5.991,-0.13,,
5.992,-0.11,,
5.993,-0.22,,
5.994,-0.32,,
5.995,-0.22,,
5.996,-0.1,,
5.997,-0.2,,
5.998,-0.2,,
5.999,0,,
6,0.08,,
6.001,0.18,,
6.002,0.26,,
6.003,0.21,,
6.004,0.11,,
6.005,0.08,,
6.006,0.15,,
6.007,0.12,,
6.008,0.06,,
6.009,0.02,,
6.01,-0.01,,
6.011,-0.07,,
6.012,-0.16,,
6.013,-0.25,,
6.014,-0.27,,
6.015,-0.23,,
6.016,-0.18,,
6.017,0.05,,
6.018,0.23,,
6.019,0.1,,
6.02,0.08,,
6.021,0.07,,
6.022,-0.06,,
6.023,-0.15,,
6.024,-0.25,,
6.025,-0.28,,
6.026,-0.11,,
6.027,-0.18,,
6.028,-0.18,,
6.029,0.06,,
6.03,0.21,,
6.031,0.03,,
6.032,0.16,,
6.033,0.12,,
6.034,0.37,,
6.035,0.23,,
6.036,0.12,,
6.037,0.15,,
6.038,0.04,,
6.039,-0.33,,
6.04,-0.53,,
6.041,-0.11,,
6.042,0,,
6.043,0.21,,
6.044,-0.12,,
6.045,0.13,,
6.046,0.36,,
6.047,0.26,,
6.048,0.18,,
6.049,0.19,,
6.05,0.18,,
6.051,0.05,,
6.052,-0.05,,
6.053,-0.09,,
6.054,-0.12,,
6.055,-0.11,,
6.056,-0.12,,
6.057,-0.09,,
6.058,-0.09,,
6.059,-0.06,,
6.06,-0.01,,
6.061,0,,
6.062,0.02,,
6.063,0.03,,
6.064,0.05,,
6.065,0.05,,
6.066,0.01,,
6.067,0.03,,
6.068,0.04,,
6.069,0.12,,
6.07,0.05,,
6.071,0,,
6.072,-0.08,,
6.073,-0.15,,
6.074,-0.28,,
6.075,-0.32,,
6.076,-0.18,,
6.077,0.02,,
6.078,-0.02,,
6.079,-0.03,,
6.08,-0.02,,
6.081,0.04,,
6.082,0.09,,
6.083,0.07,,
6.084,0.11,,
6.085,0.17,,
6.086,0.08,,
6.087,-0.02,,
6.088,0.04,,
6.089,0.06,,
6.09,0.01,,
6.091,0.04,,
6.092,0,,
6.093,0,,
6.094,-0.05,,
6.095,-0.07,,
6.096,-0.07,,
6.097,-0.04,,
6.098,-0.07,,
6.099,-0.09,,
6.1,-0.11,,
6.101,-0.06,,
6.102,0.04,,
6.103,0.07,,
6.104,0.05,,
6.105,0.05,,
6.106,0.06,,
6.107,0.06,,
6.108,0.07,,
6.109,0.07,,
6.11,0.08,,
6.111,0.05,,
6.112,-0.02,,
6.113,-0.06,,
6.114,-0.08,,
6.115,-0.11,,
6.116,-0.16,,
6.117,-0.16,,
6.118,-0.16,,
6.119,-0.06,,
6.12,-0.05,,
6.121,-0.03,,
6.122,0.04,,
6.123,0.11,,
6.124,0.17,,
6.125,0.17,,
6.126,0.11,,
6.127,0.05,,
6.128,0.03,,
6.129,0.03,,
6.13,-0.01,,
6.131,-0.06,,
6.132,-0.04,,
6.133,0,,
6.134,-0.08,,
6.135,-0.1,,
6.136,-0.06,,
6.137,-0.06,,
6.138,-0.1,,
6.139,-0.21,,
6.14,-0.18,,
6.141,-0.06,,
6.142,0.07,,
6.143,0.1,,
6.144,0.05,,
6.145,0.04,,
6.146,0.02,,
6.147,-0.04,,
6.148,-0.05,,
6.149,0.03,,
6.15,0.16,,
6.151,0.11,,
6.152,0.05,,
6.153,0.01,,
6.154,-0.04,,
6.155,-0.13,,
6.156,-0.18,,
6.157,-0.2,,
6.158,-0.08,,
6.159,0.01,,
6.16,0.02,,
6.161,-0.1,,
6.162,-0.13,,
6.163,-0.1,,
6.164,-0.08,,
6.165,-0.15,,
6.166,-0.15,,
6.167,-0.16,,
6.168,0.09,,
6.169,0.23,,
6.17,0.25,,
6.171,0.21,,
6.172,0.19,,
6.173,0.03,,
6.174,0.04,,
6.175,0.17,,
6.176,0.26,,
6.177,0.3,,
6.178,0.21,,
6.179,0.11,,
6.18,-0.03,,
6.181,-0.15,,
6.182,-0.07,,
6.183,0.07,,
6.184,0.09,,
6.185,0.13,,
6.186,0.08,,
6.187,0.04,,
6.188,0.07,,
6.189,0.18,,
6.19,0.15,,
6.191,0.06,,
6.192,0.01,,
6.193,0.02,,
6.194,0.09,,
6.195,0.04,,
6.196,0.05,,
6.197,0.01,,
6.198,-0.03,,
6.199,-0.07,,
6.2,-0.23,,
6.201,-0.25,,
6.202,-0.02,,
6.203,0.12,,
6.204,0.16,,
6.205,0.18,,
6.206,0.14,,
6.207,0.08,,
6.208,0.08,,
6.209,0.13,,
6.21,0.21,,
6.211,0.25,,
6.212,0.25,,
6.213,0.12,,
6.214,0.03,,
6.215,0.01,,
6.216,0,,
6.217,-0.05,,
6.218,-0.11,,
6.219,-0.16,,
6.22,-0.09,,
6.221,-0.08,,
6.222,0,,
6.223,0.05,,
6.224,0.08,,
6.225,0.19,,
6.226,0.17,,
6.227,0.08,,
6.228,0.04,,
6.229,-0.01,,
6.23,-0.05,,
6.231,-0.03,,
6.232,0.01,,
6.233,0.01,,
6.234,0.02,,
6.235,-0.01,,
6.236,-0.04,,
6.237,-0.16,,
6.238,-0.24,,
6.239,-0.21,,
6.24,-0.12,,
6.241,-0.08,,
6.242,-0.02,,
6.243,-0.03,,
6.244,-0.04,,
6.245,-0.02,,
6.246,0.03,,
6.247,0.07,,
6.248,0.1,,
6.249,0.07,,
6.25,0.05,,
6.251,0,,
6.252,-0.04,,
6.253,-0.06,,
6.254,-0.09,,
6.255,-0.1,,
6.256,-0.13,,
6.257,-0.13,,
6.258,-0.16,,
6.259,-0.13,,
6.26,-0.17,,
6.261,-0.14,,
6.262,-0.13,,
6.263,-0.09,,
6.264,-0.05,,
6.265,0,,
6.266,0.02,,
6.267,0.04,,
6.268,0.02,,
6.269,0.04,,
6.27,0.04,,
6.271,0.04,,
6.272,0,,
6.273,0.01,,
6.274,-0.03,,
6.275,-0.04,,
6.276,-0.04,,
6.277,-0.06,,
6.278,-0.06,,
6.279,-0.06,,
6.28,-0.03,,
6.281,-0.06,,
6.282,-0.08,,
6.283,-0.09,,
6.284,-0.05,,
6.285,-0.01,,
6.286,0.03,,
6.287,0.07,,
6.288,0.07,,
6.289,0.05,,
6.29,0.07,,
6.291,0.07,,
6.292,0.07,,
6.293,0.05,,
6.294,0.03,,
6.295,0.02,,
6.296,0,,
6.297,-0.02,,
6.298,-0.06,,
6.299,-0.07,,
6.3,-0.08,,
6.301,-0.08,,
6.302,-0.08,,
6.303,-0.05,,
6.304,-0.01,,
6.305,0,,
6.306,0.02,,
6.307,0.02,,
6.308,0.08,,
6.309,0.09,,
6.31,0.09,,
6.311,0.09,,
6.312,0.05,,
6.313,0.06,,
6.314,0.05,,
6.315,0.05,,
6.316,0.02,,
6.317,-0.01,,
6.318,-0.02,,
6.319,-0.04,,
6.32,-0.08,,
6.321,-0.11,,
6.322,-0.08,,
6.323,-0.08,,
6.324,-0.04,,
6.325,0.01,,
6.326,0.05,,
6.327,0.06,,
6.328,0.05,,
6.329,0.09,,
6.33,0.08,,
6.331,0.07,,
6.332,0.07,,
6.333,0.04,,
6.334,0.03,,
6.335,0.03,,
6.336,0.01,,
6.337,0,,
6.338,-0.04,,
6.339,-0.07,,
6.34,-0.11,,
6.341,-0.16,,
6.342,-0.12,,
6.343,-0.1,,
6.344,-0.06,,
6.345,-0.02,,
6.346,0,,
6.347,0.02,,
6.348,0.07,,
6.349,0.08,,
6.35,0.1,,
6.351,0.1,,
6.352,0.07,,
6.353,0.06,,
6.354,0.06,,
6.355,0,,
6.356,0.02,,
6.357,0,,
6.358,-0.04,,
6.359,-0.04,,
6.36,-0.06,,
6.361,-0.08,,
6.362,-0.07,,
6.363,-0.07,,
6.364,-0.08,,
6.365,-0.05,,
6.366,-0.02,,
6.367,0,,
6.368,0.04,,
6.369,0.08,,
6.37,0.03,,
6.371,0.03,,
6.372,0.06,,
6.373,0.07,,
6.374,0.07,,
6.375,0.07,,
6.376,0.02,,
6.377,0.01,,
6.378,-0.05,,
6.379,-0.01,,
6.38,-0.04,,
6.381,-0.06,,
6.382,-0.09,,
6.383,-0.08,,
6.384,-0.08,,
6.385,-0.04,,
6.386,-0.01,,
6.387,-0.01,,
6.388,0.01,,
6.389,0.05,,
6.39,0.07,,
6.391,0.07,,
6.392,0.07,,
6.393,0.06,,
6.394,0.04,,
6.395,0.06,,
6.396,0.03,,
6.397,0.04,,
6.398,0.02,,
6.399,-0.02,,
6.4,-0.03,,
6.401,-0.06,,
6.402,-0.09,,
6.403,-0.09,,
6.404,-0.09,,
6.405,-0.08,,
6.406,-0.05,,
6.407,-0.03,,
6.408,0.01,,
6.409,0.06,,
6.41,0.11,,
6.411,0.05,,
6.412,0.06,,
6.413,0.04,,
6.414,0.04,,
6.415,0.06,,
6.416,0.04,,
6.417,0.06,,
6.418,0,,
6.419,-0.01,,
6.42,-0.03,,
6.421,-0.07,,
6.422,-0.08,,
6.423,-0.11,,
6.424,-0.07,,
6.425,-0.09,,
6.426,-0.07,,
6.427,-0.05,,
6.428,0.03,,
6.429,0.03,,
6.43,0.06,,
6.431,0.08,,
6.432,0.08,,
6.433,0.06,,
6.434,0.07,,
6.435,0.07,,
6.436,0.06,,
6.437,0.08,,
6.438,0.02,,
6.439,0.01,,
6.44,-0.01,,
6.441,-0.06,,
6.442,-0.09,,
6.443,-0.1,,
6.444,-0.11,,
6.445,-0.11,,
6.446,-0.1,,
6.447,-0.06,,
6.448,-0.01,,
6.449,0.01,,
6.45,0.05,,
6.451,0.08,,
6.452,0.06,,
6.453,0.07,,
6.454,0.08,,
6.455,0.06,,
6.456,0.08,,
6.457,0.04,,
6.458,0.02,,
6.459,0.04,,
6.46,0,,
6.461,-0.04,,
6.462,-0.05,,
6.463,-0.08,,
6.464,-0.09,,
6.465,-0.08,,
6.466,-0.1,,
6.467,-0.08,,
6.468,-0.02,,
6.469,0.02,,
6.47,0.04,,
6.471,0.08,,
6.472,0.09,,
6.473,0.08,,
6.474,0.07,,
6.475,0.05,,
6.476,0.06,,
6.477,0.06,,
6.478,0.06,,
6.479,0.03,,
6.48,0,,
6.481,0.01,,
6.482,-0.05,,
6.483,-0.09,,
6.484,-0.11,,
6.485,-0.09,,
6.486,-0.09,,
6.487,-0.08,,
6.488,-0.06,,
6.489,-0.01,,
6.49,0.03,,
6.491,0.04,,
6.492,0.06,,
6.493,0.08,,
6.494,0.07,,
6.495,0.1,,
6.496,0.07,,
6.497,0.09,,
6.498,0.06,,
6.499,0.04,,
6.5,0.01,,
6.501,-0.01,,
6.502,-0.03,,
6.503,-0.06,,
6.504,-0.07,,
6.505,-0.09,,
6.506,-0.07,,
6.507,-0.05,,
6.508,-0.04,,
6.509,-0.03,,
6.51,0,,
6.511,0.01,,
6.512,0.06,,
6.513,0.09,,
6.514,0.08,,
6.515,0.11,,
6.516,0.09,,
6.517,0.07,,
6.518,0.06,,
6.519,0.03,,
6.52,0.01,,
6.521,0,,
6.522,-0.03,,
6.523,-0.04,,
6.524,-0.09,,
6.525,-0.12,,
6.526,-0.1,,
6.527,-0.1,,
6.528,-0.07,,
6.529,-0.05,,
6.53,0,,
6.531,0.02,,
6.532,0.06,,
6.533,0.06,,
6.534,0.08,,
6.535,0.08,,
6.536,0.08,,
6.537,0.07,,
6.538,0.06,,
6.539,0.06,,
6.54,0.05,,
6.541,0.01,,
6.542,-0.01,,
6.543,-0.02,,
6.544,-0.05,,
6.545,-0.08,,
6.546,-0.11,,
6.547,-0.09,,
6.548,-0.07,,
6.549,-0.06,,
6.55,-0.03,,
6.551,0,,
6.552,0.05,,
6.553,0.07,,
6.554,0.1,,
6.555,0.1,,
6.556,0.09,,
6.557,0.08,,
6.558,0.06,,
6.559,0.06,,
6.56,0.08,,
6.561,0.02,,
6.562,0,,
6.563,-0.02,,
6.564,-0.06,,
6.565,-0.07,,
6.566,-0.11,,
6.567,-0.1,,
6.568,-0.11,,
6.569,-0.06,,
6.57,-0.03,,
6.571,-0.01,,
6.572,0.02,,
6.573,0.05,,
6.574,0.05,,
6.575,0.07,,
6.576,0.08,,
6.577,0.07,,
6.578,0.05,,
6.579,0.06,,
6.58,0.05,,
6.581,0.04,,
6.582,0.02,,
6.583,-0.01,,
6.584,-0.03,,
6.585,-0.06,,
6.586,-0.06,,
6.587,-0.08,,
6.588,-0.11,,
6.589,-0.08,,
6.59,-0.06,,
6.591,-0.02,,
6.592,0,,
6.593,0.04,,
6.594,0.08,,
6.595,0.08,,
6.596,0.07,,
6.597,0.07,,
6.598,0.08,,
6.599,0.08,,
6.6,0.06,,
6.601,0.05,,
6.602,0.02,,
6.603,0,,
6.604,-0.01,,
6.605,-0.05,,
6.606,-0.06,,
6.607,-0.09,,
6.608,-0.09,,
6.609,-0.07,,
6.61,-0.06,,
6.611,-0.03,,
6.612,-0.02,,
6.613,0.01,,
6.614,0.02,,
6.615,0.08,,
6.616,0.07,,
6.617,0.08,,
6.618,0.08,,
6.619,0.08,,
6.62,0.07,,
6.621,0.05,,
6.622,0.03,,
6.623,0.03,,
6.624,-0.02,,
6.625,-0.04,,
6.626,-0.06,,
6.627,-0.09,,
6.628,-0.11,,
6.629,-0.08,,
6.63,-0.08,,
6.631,-0.05,,
6.632,-0.02,,
6.633,0.03,,
6.634,0.04,,
6.635,0.06,,
6.636,0.07,,
6.637,0.09,,
6.638,0.08,,
6.639,0.07,,
6.64,0.07,,
6.641,0.05,,
6.642,0.04,,
6.643,0.03,,
6.644,0,,
6.645,-0.02,,
6.646,-0.04,,
6.647,-0.08,,
6.648,-0.07,,
6.649,-0.1,,
6.65,-0.07,,
6.651,-0.07,,
6.652,-0.03,,
6.653,0,,
6.654,0.02,,
6.655,0.06,,
6.656,0.1,,
6.657,0.08,,
6.658,0.07,,
6.659,0.06,,
6.66,0.08,,
6.661,0.06,,
6.662,0.07,,
6.663,0.04,,
6.664,0.04,,
6.665,0,,
6.666,-0.03,,
6.667,-0.06,,
6.668,-0.06,,
6.669,-0.09,,
6.67,-0.06,,
6.671,-0.09,,
6.672,-0.07,,
6.673,-0.04,,
6.674,0,,
6.675,0.06,,
6.676,0.05,,
6.677,0.07,,
6.678,0.08,,
6.679,0.07,,
6.68,0.05,,
6.681,0.05,,
6.682,0.07,,
6.683,0.05,,
6.684,0.03,,
6.685,0,,
6.686,-0.03,,
6.687,-0.04,,
6.688,-0.09,,
6.689,-0.1,,
6.69,-0.11,,
6.691,-0.06,,
6.692,-0.07,,
6.693,-0.02,,
6.694,-0.01,,
6.695,0.02,,
6.696,0.05,,
6.697,0.09,,
6.698,0.11,,
6.699,0.08,,
6.7,0.08,,
6.701,0.08,,
6.702,0.08,,
6.703,0.08,,
6.704,0.03,,
6.705,0.01,,
6.706,-0.02,,
6.707,-0.03,,
6.708,-0.07,,
6.709,-0.09,,
6.71,-0.08,,
6.711,-0.07,,
6.712,-0.09,,
6.713,-0.06,,
6.714,-0.01,,
6.715,0.02,,
6.716,0.03,,
6.717,0.08,,
6.718,0.08,,
6.719,0.07,,
6.72,0.05,,
6.721,0.07,,
6.722,0.08,,
6.723,0.06,,
6.724,0.06,,
6.725,0.03,,
6.726,0.01,,
6.727,-0.01,,
6.728,-0.05,,
6.729,-0.08,,
6.73,-0.09,,
6.731,-0.09,,
6.732,-0.07,,
6.733,-0.09,,
6.734,-0.07,,
6.735,0,,
6.736,0.03,,
6.737,0.05,,
6.738,0.07,,
6.739,0.08,,
6.74,0.09,,
6.741,0.07,,
6.742,0.06,,
6.743,0.05,,
6.744,0.06,,
6.745,0.03,,
6.746,0.02,,
6.747,-0.01,,
6.748,-0.05,,
6.749,-0.04,,
6.75,-0.07,,
6.751,-0.1,,
6.752,-0.08,,
6.753,-0.08,,
6.754,-0.05,,
6.755,-0.01,,
6.756,0.03,,
6.757,0.04,,
6.758,0.08,,
6.759,0.08,,
6.76,0.1,,
6.761,0.09,,
6.762,0.08,,
6.763,0.06,,
6.764,0.05,,
6.765,0.03,,
6.766,0.03,,
6.767,0.04,,
6.768,0,,
6.769,-0.05,,
6.77,-0.08,,
6.771,-0.09,,
6.772,-0.07,,
6.773,-0.08,,
6.774,-0.08,,
6.775,-0.04,,
6.776,-0.01,,
6.777,0.03,,
6.778,0.06,,
6.779,0.07,,
6.78,0.05,,
6.781,0.1,,
6.782,0.08,,
6.783,0.06,,
6.784,0.05,,
6.785,0.05,,
6.786,0.03,,
6.787,0.01,,
6.788,-0.01,,
6.789,-0.03,,
6.79,-0.08,,
6.791,-0.08,,
6.792,-0.09,,
6.793,-0.1,,
6.794,-0.09,,
6.795,-0.05,,
6.796,0,,
6.797,0.02,,
6.798,0.04,,
6.799,0.06,,
6.8,0.09,,
6.801,0.08,,
6.802,0.07,,
6.803,0.09,,
6.804,0.04,,
6.805,0.05,,
6.806,0.06,,
6.807,0.02,,
6.808,0.01,,
6.809,-0.02,,
6.81,-0.05,,
6.811,-0.09,,
6.812,-0.1,,
6.813,-0.09,,
6.814,-0.06,,
6.815,-0.05,,
6.816,-0.04,,
6.817,0.02,,
6.818,0.04,,
6.819,0.04,,
6.82,0.07,,
6.821,0.08,,
6.822,0.08,,
6.823,0.07,,
6.824,0.06,,
6.825,0.08,,
6.826,0.07,,
6.827,0.04,,
6.828,0,,
6.829,-0.01,,
6.83,-0.02,,
6.831,-0.06,,
6.832,-0.11,,
6.833,-0.1,,
6.834,-0.09,,
6.835,-0.1,,
6.836,-0.05,,
6.837,-0.01,,
6.838,0.01,,
6.839,0.06,,
6.84,0.04,,
6.841,0.08,,
6.842,0.08,,
6.843,0.08,,
6.844,0.05,,
6.845,0.05,,
6.846,0.05,,
6.847,0.04,,
6.848,0.01,,
6.849,0,,
6.85,-0.03,,
6.851,-0.06,,
6.852,-0.1,,
6.853,-0.11,,
6.854,-0.11,,
6.855,-0.08,,
6.856,-0.06,,
6.857,-0.02,,
6.858,0,,
6.859,0.04,,
6.86,0.06,,
6.861,0.06,,
6.862,0.08,,
6.863,0.08,,
6.864,0.09,,
6.865,0.07,,
6.866,0.05,,
6.867,0.03,,
6.868,0.02,,
6.869,0.02,,
6.87,-0.01,,
6.871,-0.04,,
6.872,-0.02,,
6.873,-0.11,,
6.874,-0.12,,
6.875,-0.11,,
6.876,-0.11,,
6.877,-0.02,,
6.878,0.01,,
6.879,0.02,,
6.88,0.07,,
6.881,0.08,,
6.882,0.07,,
6.883,0.08,,
6.884,0.09,,
6.885,0.06,,
6.886,0.04,,
6.887,0.05,,
6.888,0.05,,
6.889,0.06,,
6.89,0,,
6.891,-0.04,,
6.892,-0.07,,
6.893,-0.1,,
6.894,-0.09,,
6.895,-0.08,,
6.896,-0.08,,
6.897,-0.08,,
6.898,-0.04,,
6.899,0,,
6.9,0.02,,
6.901,0.07,,
6.902,0.08,,
6.903,0.09,,
6.904,0.08,,
6.905,0.05,,
6.906,0.05,,
6.907,0.04,,
6.908,0.04,,
6.909,0.02,,
6.91,0,,
6.911,-0.01,,
6.912,-0.04,,
6.913,-0.07,,
6.914,-0.09,,
6.915,-0.08,,
6.916,-0.1,,
6.917,-0.08,,
6.918,-0.01,,
6.919,0,,
6.92,0,,
6.921,0.04,,
6.922,0.08,,
6.923,0.05,,
6.924,0.09,,
6.925,0.07,,
6.926,0.08,,
6.927,0.05,,
6.928,0.07,,
6.929,0.04,,
6.93,0.02,,
6.931,-0.01,,
6.932,-0.01,,
6.933,-0.06,,
6.934,-0.09,,
6.935,-0.1,,
6.936,-0.09,,
6.937,-0.1,,
6.938,-0.07,,
6.939,-0.03,,
6.94,0,,
6.941,0.05,,
6.942,0.07,,
6.943,0.06,,
6.944,0.06,,
6.945,0.07,,
6.946,0.06,,
6.947,0.05,,
6.948,0.04,,
6.949,0.03,,
6.95,0.03,,
6.951,0,,
6.952,0,,
6.953,-0.03,,
6.954,-0.07,,
6.955,-0.08,,
6.956,-0.1,,
6.957,-0.08,,
6.958,-0.08,,
6.959,-0.04,,
6.96,0.01,,
6.961,0.03,,
6.962,0.07,,
6.963,0.07,,
