"Time[s]",Voltage[V],,
0.001,0.01,,Rate:1kHz
0.002,0,,
0.003,-0.01,,
0.004,-0.02,,
0.005,-0.03,,
0.006,-0.05,,
0.007,-0.06,,
0.008,-0.07,,
0.009,-0.06,,
0.01,-0.03,,
0.011,0,,
0.012,0.04,,
0.013,0.06,,
0.014,0.05,,
0.015,0.04,,
0.016,0.03,,
0.017,0.06,,
0.018,0.05,,
0.019,0.03,,
0.02,0.01,,
0.021,0,,
0.022,0,,
0.023,0,,
0.024,0,,
0.025,-0.04,,
0.026,-0.02,,
0.027,-0.05,,
0.028,-0.06,,
0.029,-0.04,,
0.03,-0.03,,
0.031,-0.03,,
0.032,0,,
0.033,0.03,,
0.034,0.04,,
0.035,0.03,,
0.036,0.06,,
0.037,0.07,,
0.038,0.06,,
0.039,0.05,,
0.04,0.03,,
0.041,0.02,,
0.042,0,,
0.043,-0.03,,
0.044,-0.05,,
0.045,-0.08,,
0.046,-0.08,,
0.047,-0.06,,
0.048,-0.03,,
0.049,-0.01,,
0.05,-0.03,,
0.051,-0.01,,
0.052,0.01,,
0.053,0.04,,
0.054,0.06,,
0.055,0.05,,
0.056,0.05,,
0.057,0.02,,
0.058,0.03,,
0.059,0.03,,
0.06,0.02,,
0.061,0.01,,
0.062,0,,
0.063,-0.01,,
0.064,-0.01,,
0.065,-0.01,,
0.066,-0.01,,
0.067,-0.06,,
0.068,-0.05,,
0.069,-0.06,,
0.07,-0.08,,
0.071,-0.06,,
0.072,-0.03,,
0.073,0,,
0.074,0.04,,
0.075,0.02,,
0.076,0.05,,
0.077,0.05,,
0.078,0.03,,
0.079,0.01,,
0.08,0.03,,
0.081,0.01,,
0.082,0,,
0.083,0.01,,
0.084,-0.01,,
0.085,-0.01,,
0.086,-0.03,,
0.087,-0.05,,
0.088,-0.06,,
0.089,-0.06,,
0.09,-0.03,,
0.091,-0.01,,
0.092,0,,
0.093,0.03,,
0.094,0.04,,
0.095,0.06,,
0.096,0.06,,
0.097,0.05,,
0.098,0.06,,
0.099,0.05,,
0.1,0.03,,
0.101,0.03,,
0.102,0.02,,
0.103,0.02,,
0.104,0.01,,
0.105,-0.01,,
0.106,-0.03,,
0.107,-0.06,,
0.108,-0.06,,
0.109,-0.08,,
0.11,-0.09,,
0.111,-0.08,,
0.112,-0.04,,
0.113,0.03,,
0.114,0.04,,
0.115,0.04,,
0.116,0.04,,
0.117,0.03,,
0.118,0.04,,
0.119,0.02,,
0.12,0.02,,
0.121,0.02,,
0.122,0.02,,
0.123,0.02,,
0.124,0,,
0.125,-0.04,,
0.126,-0.04,,
0.127,-0.07,,
0.128,-0.08,,
0.129,-0.09,,
0.13,-0.07,,
0.131,-0.09,,
0.132,-0.07,,
0.133,-0.05,,
0.134,-0.02,,
0.135,0.01,,
0.136,0.01,,
0.137,0.02,,
0.138,0.04,,
0.139,0.01,,
0.14,0.03,,
0.141,0.02,,
0.142,0.03,,
0.143,0.03,,
0.144,0.01,,
0.145,-0.02,,
0.146,-0.02,,
0.147,-0.03,,
0.148,-0.09,,
0.149,-0.06,,
0.15,-0.07,,
0.151,-0.06,,
0.152,-0.08,,
0.153,-0.06,,
0.154,-0.03,,
0.155,-0.01,,
0.156,0,,
0.157,0,,
0.158,0.01,,
0.159,0.02,,
0.16,0.01,,
0.161,0.04,,
0.162,0.04,,
0.163,0.03,,
0.164,0,,
0.165,0,,
0.166,-0.03,,
0.167,-0.04,,
0.168,-0.06,,
0.169,-0.11,,
0.17,-0.11,,
0.171,-0.12,,
0.172,-0.09,,
0.173,-0.05,,
0.174,0,,
0.175,0.03,,
0.176,0.05,,
0.177,0.05,,
0.178,0.04,,
0.179,0.03,,
0.18,0.08,,
0.181,0.04,,
0.182,0.06,,
0.183,0.05,,
0.184,0.03,,
0.185,0.01,,
0.186,0.01,,
0.187,-0.01,,
0.188,-0.04,,
0.189,-0.05,,
0.19,-0.05,,
0.191,-0.07,,
0.192,-0.06,,
0.193,-0.05,,
0.194,-0.02,,
0.195,0.01,,
0.196,0.03,,
0.197,0.03,,
0.198,0.03,,
0.199,0.05,,
0.2,0.05,,
0.201,0.06,,
0.202,0.06,,
0.203,0.04,,
0.204,0.03,,
0.205,0.04,,
0.206,0.05,,
0.207,0.03,,
0.208,0.01,,
0.209,-0.06,,
0.21,-0.09,,
0.211,-0.1,,
0.212,-0.12,,
0.213,-0.07,,
0.214,-0.04,,
0.215,0.02,,
0.216,0.03,,
0.217,0.06,,
0.218,0.05,,
0.219,0.03,,
0.22,0.02,,
0.221,0.01,,
0.222,0.03,,
0.223,0.04,,
0.224,0.05,,
0.225,0.03,,
0.226,0,,
0.227,0,,
0.228,-0.04,,
0.229,-0.08,,
0.23,-0.08,,
0.231,-0.07,,
0.232,-0.07,,
0.233,-0.07,,
0.234,-0.02,,
0.235,-0.02,,
0.236,0.01,,
0.237,0.05,,
0.238,0.04,,
0.239,0.04,,
0.24,0.02,,
0.241,0.02,,
0.242,0.03,,
0.243,0.02,,
0.244,0.02,,
0.245,0,,
0.246,0,,
0.247,-0.01,,
0.248,-0.06,,
0.249,-0.07,,
0.25,-0.1,,
0.251,-0.08,,
0.252,-0.1,,
0.253,-0.06,,
0.254,-0.07,,
0.255,-0.04,,
0.256,-0.01,,
0.257,0.03,,
0.258,0.03,,
0.259,0.05,,
0.26,0.03,,
0.261,0.03,,
0.262,0.02,,
0.263,0,,
0.264,0.02,,
0.265,0.03,,
0.266,0,,
0.267,0,,
0.268,-0.02,,
0.269,-0.04,,
0.27,-0.04,,
0.271,-0.09,,
0.272,-0.09,,
0.273,-0.07,,
0.274,-0.06,,
0.275,-0.03,,
0.276,0.02,,
0.277,0.02,,
0.278,0.04,,
0.279,0.05,,
0.28,0.04,,
0.281,0.05,,
0.282,0.05,,
0.283,0.05,,
0.284,0.05,,
0.285,0.08,,
0.286,0.05,,
0.287,0.03,,
0.288,0.01,,
0.289,-0.03,,
0.29,-0.06,,
0.291,-0.09,,
0.292,-0.09,,
0.293,-0.08,,
0.294,-0.05,,
0.295,-0.05,,
0.296,0.01,,
0.297,0.02,,
0.298,0.04,,
0.299,0.04,,
0.3,0.06,,
0.301,0.05,,
0.302,0.05,,
0.303,0.06,,
0.304,0.05,,
0.305,0.08,,
0.306,0.08,,
0.307,0.05,,
0.308,0.03,,
0.309,0.04,,
0.31,0,,
0.311,-0.03,,
0.312,-0.08,,
0.313,-0.09,,
0.314,-0.06,,
0.315,-0.04,,
0.316,-0.01,,
0.317,0.01,,
0.318,0.03,,
0.319,0.07,,
0.32,0.05,,
0.321,0.05,,
0.322,0.04,,
0.323,0.05,,
0.324,0.03,,
0.325,0.06,,
0.326,0.07,,
0.327,0.07,,
0.328,0.05,,
0.329,0.03,,
0.33,0.01,,
0.331,-0.03,,
0.332,-0.05,,
0.333,-0.07,,
0.334,-0.05,,
0.335,-0.05,,
0.336,-0.03,,
0.337,0.01,,
0.338,0.06,,
0.339,0.05,,
0.34,0.06,,
0.341,0.04,,
0.342,0.02,,
0.343,0.05,,
0.344,0.04,,
0.345,0.06,,
0.346,0.05,,
0.347,0.05,,
0.348,0.03,,
0.349,0.02,,
0.35,0.02,,
0.351,0,,
0.352,-0.03,,
0.353,-0.03,,
0.354,-0.08,,
0.355,-0.07,,
0.356,-0.02,,
0.357,-0.03,,
0.358,-0.02,,
0.359,0.01,,
0.36,0.03,,
0.361,0.04,,
0.362,0.05,,
0.363,0.06,,
0.364,0.04,,
0.365,0.05,,
0.366,0.05,,
0.367,0.07,,
0.368,0.07,,
0.369,0.08,,
0.37,0.04,,
0.371,-0.02,,
0.372,-0.05,,
0.373,-0.05,,
0.374,-0.07,,
0.375,-0.08,,
0.376,-0.1,,
0.377,-0.06,,
0.378,-0.02,,
0.379,0.02,,
0.38,0.02,,
0.381,0.03,,
0.382,0.04,,
0.383,0.03,,
0.384,0.06,,
0.385,0.07,,
0.386,0.05,,
0.387,0.05,,
0.388,0.06,,
0.389,0.05,,
0.39,0.05,,
0.391,0.02,,
0.392,-0.02,,
0.393,-0.07,,
0.394,-0.08,,
0.395,-0.1,,
0.396,-0.08,,
0.397,-0.04,,
0.398,-0.01,,
0.399,0.01,,
0.4,0.03,,
0.401,0.04,,
0.402,0.03,,
0.403,0.04,,
0.404,0.04,,
0.405,0.08,,
0.406,0.03,,
0.407,0.03,,
0.408,0.05,,
0.409,0.05,,
0.41,0.04,,
0.411,0,,
0.412,0.02,,
0.413,-0.06,,
0.414,-0.07,,
0.415,-0.07,,
0.416,-0.04,,
0.417,-0.05,,
0.418,0,,
0.419,0.03,,
0.42,0.07,,
0.421,0.08,,
0.422,0.06,,
0.423,0.04,,
0.424,0.02,,
0.425,0.02,,
0.426,0.01,,
0.427,0.02,,
0.428,0.07,,
0.429,0.06,,
0.43,0.06,,
0.431,0.04,,
0.432,0,,
0.433,-0.03,,
0.434,-0.07,,
0.435,-0.09,,
0.436,-0.1,,
0.437,-0.07,,
0.438,-0.07,,
0.439,-0.02,,
0.44,0,,
0.441,0.01,,
0.442,0.03,,
0.443,0.05,,
0.444,0.05,,
0.445,0.07,,
0.446,0.06,,
0.447,0.09,,
0.448,0.09,,
0.449,0.08,,
0.45,0.03,,
0.451,-0.01,,
0.452,-0.02,,
0.453,-0.03,,
0.454,-0.07,,
0.455,-0.07,,
0.456,-0.06,,
0.457,-0.09,,
0.458,-0.09,,
0.459,-0.05,,
0.46,-0.02,,
0.461,0.03,,
0.462,0.04,,
0.463,0.04,,
0.464,0.04,,
0.465,0.02,,
0.466,0.03,,
0.467,0.03,,
0.468,0.05,,
0.469,0.06,,
0.47,0.1,,
0.471,0.09,,
0.472,0.07,,
0.473,0.04,,
0.474,0,,
0.475,-0.09,,
0.476,-0.1,,
0.477,-0.11,,
0.478,-0.09,,
0.479,-0.06,,
0.48,-0.01,,
0.481,-0.01,,
0.482,0,,
0.483,0.02,,
0.484,0.03,,
0.485,0.02,,
0.486,0.05,,
0.487,0.04,,
0.488,0.07,,
0.489,0.04,,
0.49,0.05,,
0.491,0.03,,
0.492,0.03,,
0.493,0.02,,
0.494,-0.01,,
0.495,-0.04,,
0.496,-0.07,,
0.497,-0.06,,
0.498,-0.07,,
0.499,-0.08,,
0.5,-0.05,,
0.501,0,,
0.502,0.01,,
0.503,0.04,,
0.504,0.02,,
0.505,0.04,,
0.506,0.04,,
0.507,0.04,,
0.508,0.04,,
0.509,0.02,,
0.51,0.03,,
0.511,0.04,,
0.512,0.03,,
0.513,0.01,,
0.514,-0.02,,
0.515,-0.04,,
0.516,-0.05,,
0.517,-0.04,,
0.518,-0.06,,
0.519,-0.05,,
0.52,-0.06,,
0.521,-0.04,,
0.522,0,,
0.523,0.04,,
0.524,0.07,,
0.525,0.06,,
0.526,0.05,,
0.527,0.03,,
0.528,0.04,,
0.529,0.03,,
0.53,0,,
0.531,0.01,,
0.532,0.02,,
0.533,0.04,,
0.534,0.04,,
0.535,0.01,,
0.536,-0.05,,
0.537,-0.06,,
0.538,-0.06,,
0.539,-0.04,,
0.54,-0.04,,
0.541,-0.04,,
0.542,-0.02,,
0.543,-0.02,,
0.544,0.03,,
0.545,0.05,,
0.546,0.09,,
0.547,0.14,,
0.548,0.15,,
0.549,0.07,,
0.55,0.02,,
0.551,-0.04,,
0.552,0.01,,
0.553,0.06,,
0.554,0.07,,
0.555,0.09,,
0.556,-0.02,,
0.557,-0.18,,
0.558,-0.25,,
0.559,-0.24,,
0.56,-0.22,,
0.561,-0.2,,
0.562,-0.13,,
0.563,-0.08,,
0.564,0,,
0.565,0.09,,
0.566,0.14,,
0.567,0.13,,
0.568,0.16,,
0.569,0.09,,
0.57,0,,
0.571,-0.08,,
0.572,-0.12,,
0.573,-0.15,,
0.574,-0.11,,
0.575,-0.04,,
0.576,-0.08,,
0.577,-0.42,,
0.578,-0.69,,
0.579,-0.84,,
0.58,-0.82,,
0.581,-0.7,,
0.582,-0.76,,
0.583,-0.93,,
0.584,-0.67,,
0.585,-0.26,,
0.586,0.36,,
0.587,0.5,,
0.588,0.08,,
0.589,-0.26,,
0.59,-0.3,,
0.591,0.11,,
0.592,0.38,,
0.593,0.42,,
0.594,0.49,,
0.595,0.26,,
0.596,-0.04,,
0.597,-0.25,,
0.598,-0.09,,
0.599,-0.2,,
0.6,-0.32,,
0.601,-0.32,,
0.602,-0.02,,
0.603,0.03,,
0.604,-0.01,,
0.605,-0.41,,
0.606,-0.82,,
0.607,-0.73,,
0.608,-0.47,,
0.609,-0.17,,
0.61,0.64,,
0.611,1.34,,
0.612,1.61,,
0.613,1.61,,
0.614,0.25,,
0.615,0.14,,
0.616,1.49,,
0.617,0.86,,
0.618,0.11,,
0.619,-0.5,,
0.62,-0.4,,
0.621,0.14,,
0.622,0.51,,
0.623,0.5,,
0.624,0.13,,
0.625,-0.09,,
0.626,-0.33,,
0.627,-0.39,,
0.628,-0.12,,
0.629,0.1,,
0.63,0.15,,
0.631,0.23,,
0.632,0.13,,
0.633,0.12,,
0.634,0.02,,
0.635,0.26,,
0.636,-0.07,,
0.637,-0.53,,
0.638,-0.67,,
0.639,-0.66,,
0.64,-0.48,,
0.641,-0.19,,
0.642,-0.08,,
0.643,-0.16,,
0.644,-0.01,,
0.645,0.17,,
0.646,0.18,,
0.647,0.08,,
0.648,0.07,,
0.649,0.07,,
0.65,0.04,,
0.651,-0.03,,
0.652,-0.04,,
0.653,0.1,,
0.654,0.27,,
0.655,0.24,,
0.656,0.22,,
0.657,0.15,,
0.658,-0.05,,
0.659,0.11,,
0.66,-0.04,,
0.661,-0.64,,
0.662,-0.43,,
0.663,-0.12,,
0.664,-0.11,,
0.665,0.01,,
0.666,0.13,,
0.667,-0.14,,
0.668,-0.33,,
0.669,-0.17,,
0.67,-0.09,,
0.671,-0.2,,
0.672,-0.25,,
0.673,-0.21,,
0.674,-0.21,,
0.675,-0.06,,
0.676,0.11,,
0.677,0.2,,
0.678,0.17,,
0.679,0.25,,
0.68,-0.04,,
0.681,-0.18,,
0.682,-0.14,,
0.683,-0.25,,
0.684,-0.34,,
0.685,-0.19,,
0.686,-0.07,,
0.687,-0.02,,
0.688,-0.09,,
0.689,-0.17,,
0.69,-0.13,,
0.691,-0.11,,
0.692,-0.11,,
0.693,-0.09,,
0.694,-0.08,,
0.695,-0.06,,
0.696,-0.09,,
0.697,-0.08,,
0.698,-0.11,,
0.699,-0.13,,
0.7,-0.19,,
0.701,-0.18,,
0.702,-0.16,,
0.703,-0.18,,
0.704,-0.16,,
0.705,-0.1,,
0.706,-0.03,,
0.707,-0.07,,
0.708,-0.15,,
0.709,-0.16,,
0.71,-0.11,,
0.711,-0.01,,
0.712,0.05,,
0.713,0.04,,
0.714,0.08,,
0.715,0.02,,
0.716,-0.08,,
0.717,-0.17,,
0.718,-0.18,,
0.719,-0.15,,
0.72,-0.2,,
0.721,-0.12,,
0.722,-0.08,,
0.723,0,,
0.724,0.06,,
0.725,0.11,,
0.726,0.08,,
0.727,0.06,,
0.728,0.1,,
0.729,0.06,,
0.73,0.07,,
0.731,0.09,,
0.732,0.09,,
0.733,0.1,,
0.734,0.08,,
0.735,0.08,,
0.736,0.08,,
0.737,0.09,,
0.738,0.06,,
0.739,0.07,,
0.74,0,,
0.741,-0.06,,
0.742,-0.17,,
0.743,-0.18,,
0.744,-0.23,,
0.745,-0.21,,
0.746,-0.17,,
0.747,-0.03,,
0.748,0.18,,
0.749,0.28,,
0.75,0.28,,
0.751,0.21,,
0.752,0.07,,
0.753,0,,
0.754,-0.02,,
0.755,0.07,,
0.756,0.17,,
0.757,0.14,,
0.758,0.15,,
0.759,0.12,,
0.76,0.03,,
0.761,0.03,,
0.762,-0.04,,
0.763,-0.05,,
0.764,-0.17,,
0.765,-0.18,,
0.766,-0.1,,
0.767,-0.05,,
0.768,0.01,,
0.769,-0.01,,
0.77,-0.01,,
0.771,-0.04,,
0.772,0,,
0.773,0.04,,
0.774,0.02,,
0.775,0.09,,
0.776,0.11,,
0.777,0.1,,
0.778,0.06,,
0.779,0,,
0.78,-0.03,,
0.781,-0.06,,
0.782,-0.09,,
0.783,-0.13,,
0.784,-0.12,,
0.785,-0.09,,
0.786,-0.06,,
0.787,-0.07,,
0.788,-0.01,,
0.789,0.01,,
0.79,0.05,,
0.791,0.05,,
0.792,0.02,,
0.793,0,,
0.794,0.04,,
0.795,0.01,,
0.796,0.06,,
0.797,0.03,,
0.798,0.05,,
0.799,0.05,,
0.8,0.01,,
0.801,-0.02,,
0.802,-0.06,,
0.803,-0.07,,
0.804,-0.12,,
0.805,-0.12,,
0.806,-0.11,,
0.807,-0.11,,
0.808,-0.05,,
0.809,-0.02,,
0.81,0.02,,
0.811,0.05,,
0.812,0.04,,
0.813,0.03,,
0.814,0.02,,
0.815,0,,
0.816,-0.02,,
0.817,0.01,,
0.818,0.04,,
0.819,0.05,,
0.82,0.05,,
0.821,0.02,,
0.822,-0.02,,
0.823,-0.04,,
0.824,-0.1,,
0.825,-0.08,,
0.826,-0.08,,
0.827,-0.01,,
0.828,0.04,,
0.829,0.11,,
0.83,0.14,,
0.831,0.12,,
0.832,0.08,,
0.833,0,,
0.834,-0.01,,
0.835,-0.02,,
0.836,-0.01,,
0.837,0.01,,
0.838,0.01,,
0.839,0.02,,
0.84,0.01,,
0.841,-0.01,,
0.842,-0.04,,
0.843,-0.06,,
0.844,-0.07,,
0.845,-0.03,,
0.846,-0.03,,
0.847,-0.03,,
0.848,0,,
0.849,-0.01,,
0.85,0,,
0.851,0.01,,
0.852,0,,
0.853,0,,
0.854,0.01,,
0.855,0.01,,
0.856,0.01,,
0.857,0.02,,
0.858,0.04,,
0.859,0.05,,
0.86,0.03,,
0.861,0.05,,
0.862,0.01,,
0.863,-0.02,,
0.864,-0.04,,
0.865,-0.06,,
0.866,-0.1,,
0.867,-0.11,,
0.868,-0.08,,
0.869,-0.02,,
0.87,0.02,,
0.871,0.03,,
0.872,0.04,,
0.873,0.02,,
0.874,0.01,,
0.875,0.01,,
0.876,0.01,,
0.877,0.02,,
0.878,0.02,,
0.879,0.03,,
0.88,0.05,,
0.881,0.06,,
0.882,0.06,,
0.883,0.01,,
0.884,-0.02,,
0.885,-0.04,,
0.886,-0.04,,
0.887,-0.04,,
0.888,-0.07,,
0.889,-0.08,,
0.89,-0.09,,
0.891,-0.08,,
0.892,-0.04,,
0.893,0,,
0.894,0.01,,
0.895,0.05,,
0.896,0.07,,
0.897,0.13,,
0.898,0.15,,
0.899,0.11,,
0.9,0.09,,
0.901,0.04,,
0.902,-0.02,,
0.903,-0.05,,
0.904,-0.08,,
0.905,-0.07,,
0.906,-0.05,,
0.907,-0.01,,
0.908,-0.01,,
0.909,0,,
0.91,0.03,,
0.911,0.03,,
0.912,0.02,,
0.913,0.04,,
0.914,0.01,,
0.915,-0.02,,
0.916,0,,
0.917,0.01,,
0.918,0.04,,
0.919,0.05,,
0.92,0.04,,
0.921,0.03,,
0.922,-0.07,,
0.923,-0.08,,
0.924,-0.1,,
0.925,-0.08,,
0.926,-0.06,,
0.927,-0.03,,
0.928,-0.03,,
0.929,-0.05,,
0.93,-0.04,,
0.931,0.04,,
0.932,0.09,,
0.933,0.08,,
0.934,0.11,,
0.935,0.07,,
0.936,0.05,,
0.937,0.06,,
0.938,0.08,,
0.939,0.05,,
0.94,0.05,,
0.941,0.03,,
0.942,0.02,,
0.943,-0.02,,
0.944,-0.07,,
0.945,-0.1,,
0.946,-0.13,,
0.947,-0.14,,
0.948,-0.09,,
0.949,-0.08,,
0.95,-0.07,,
0.951,-0.03,,
0.952,-0.01,,
0.953,0.04,,
0.954,0.03,,
0.955,0.05,,
0.956,0.04,,
0.957,0.06,,
0.958,0.06,,
0.959,0.04,,
0.96,0,,
0.961,0,,
0.962,0.01,,
0.963,0.02,,
0.964,0,,
0.965,0,,
0.966,-0.04,,
0.967,-0.05,,
0.968,-0.05,,
0.969,-0.08,,
0.97,-0.09,,
0.971,-0.05,,
0.972,-0.03,,
0.973,0,,
0.974,0.05,,
0.975,0.06,,
0.976,0.06,,
0.977,0.08,,
0.978,0.05,,
0.979,0.05,,
0.98,0.04,,
0.981,0.02,,
0.982,0,,
0.983,0.03,,
0.984,0.02,,
0.985,-0.03,,
0.986,-0.04,,
0.987,-0.07,,
0.988,-0.07,,
0.989,-0.09,,
0.99,-0.04,,
0.991,-0.04,,
0.992,-0.02,,
0.993,0,,
0.994,0.01,,
0.995,0.05,,
0.996,0.06,,
0.997,0.04,,
0.998,0.03,,
0.999,0.01,,
1,0.04,,
1.001,0.03,,
1.002,0.03,,
1.003,0.02,,
1.004,0.02,,
1.005,0,,
1.006,-0.02,,
1.007,-0.06,,
1.008,-0.08,,
1.009,-0.11,,
1.01,-0.11,,
1.011,-0.1,,
1.012,-0.02,,
1.013,-0.01,,
1.014,0,,
1.015,0.01,,
1.016,0.03,,
1.017,0.03,,
1.018,0.07,,
1.019,0.06,,
1.02,0.06,,
1.021,0.02,,
1.022,-0.01,,
1.023,0,,
1.024,0,,
1.025,0,,
1.026,-0.05,,
1.027,-0.1,,
1.028,-0.15,,
1.029,-0.12,,
1.03,-0.08,,
1.031,-0.04,,
1.032,-0.03,,
1.033,-0.04,,
1.034,-0.04,,
1.035,-0.01,,
1.036,0.03,,
1.037,0.06,,
1.038,0.05,,
1.039,0.03,,
1.04,0.02,,
1.041,0.04,,
1.042,0.03,,
1.043,0.02,,
1.044,0.04,,
1.045,-0.01,,
1.046,-0.04,,
1.047,-0.04,,
1.048,-0.08,,
1.049,-0.08,,
1.05,-0.06,,
1.051,-0.06,,
1.052,-0.03,,
1.053,-0.05,,
1.054,-0.06,,
1.055,-0.06,,
1.056,-0.01,,
1.057,0.03,,
1.058,0.03,,
1.059,0.02,,
1.06,-0.01,,
1.061,0.01,,
1.062,0.02,,
1.063,0.03,,
1.064,0.02,,
1.065,0.01,,
1.066,0,,
1.067,0,,
1.068,-0.05,,
1.069,-0.06,,
1.07,-0.1,,
1.071,-0.09,,
1.072,-0.06,,
1.073,-0.04,,
1.074,-0.02,,
1.075,-0.01,,
1.076,0,,
1.077,-0.02,,
1.078,-0.02,,
1.079,-0.01,,
1.08,0,,
1.081,0,,
1.082,0.03,,
1.083,0.05,,
1.084,0.06,,
1.085,0.04,,
1.086,0,,
1.087,-0.02,,
1.088,-0.04,,
1.089,-0.05,,
1.09,-0.07,,
1.091,-0.07,,
1.092,-0.07,,
1.093,-0.08,,
1.094,-0.03,,
1.095,0,,
1.096,0.01,,
1.097,0.01,,
1.098,0,,
1.099,-0.01,,
1.1,0,,
1.101,0.02,,
1.102,0.02,,
1.103,0.02,,
1.104,0.03,,
1.105,0.03,,
1.106,0.02,,
1.107,0,,
1.108,-0.04,,
1.109,-0.06,,
1.11,-0.1,,
1.111,-0.09,,
1.112,-0.09,,
1.113,-0.09,,
1.114,-0.04,,
1.115,0,,
1.116,-0.02,,
1.117,0,,
1.118,0.03,,
1.119,0.02,,
1.12,0.01,,
1.121,0.03,,
1.122,0.04,,
1.123,0.05,,
1.124,0.04,,
1.125,0.05,,
1.126,0.05,,
1.127,0.03,,
1.128,-0.02,,
1.129,-0.04,,
1.13,-0.08,,
1.131,-0.09,,
1.132,-0.09,,
1.133,-0.08,,
1.134,-0.07,,
1.135,-0.02,,
1.136,-0.01,,
1.137,0,,
1.138,0,,
1.139,0.02,,
1.14,0.01,,
1.141,0.04,,
1.142,0.01,,
1.143,0.03,,
1.144,0.04,,
1.145,0.04,,
1.146,0.06,,
1.147,0.01,,
1.148,0,,
1.149,-0.01,,
1.15,-0.05,,
1.151,-0.08,,
1.152,-0.1,,
1.153,-0.07,,
1.154,-0.06,,
1.155,-0.04,,
1.156,-0.03,,
1.157,-0.03,,
1.158,0.01,,
1.159,0.04,,
1.16,0.02,,
1.161,0.01,,
1.162,0.02,,
1.163,0.02,,
1.164,0.03,,
1.165,0.03,,
1.166,0.04,,
1.167,0.01,,
1.168,0,,
1.169,-0.03,,
1.17,-0.04,,
1.171,-0.07,,
1.172,-0.06,,
1.173,-0.08,,
1.174,-0.08,,
1.175,-0.05,,
1.176,-0.04,,
1.177,-0.02,,
1.178,0,,
1.179,0,,
1.18,0,,
1.181,0,,
1.182,0.02,,
1.183,0.05,,
1.184,0.04,,
1.185,0.03,,
1.186,0.03,,
1.187,-0.01,,
1.188,-0.01,,
1.189,-0.02,,
1.19,-0.04,,
1.191,-0.06,,
1.192,-0.08,,
1.193,-0.09,,
1.194,-0.1,,
1.195,-0.08,,
1.196,-0.06,,
1.197,-0.03,,
1.198,0,,
1.199,-0.01,,
1.2,0,,
1.201,0,,
1.202,0.01,,
1.203,0.04,,
1.204,0.04,,
1.205,0.06,,
1.206,0.03,,
1.207,0.04,,
1.208,0.03,,
1.209,0.01,,
1.21,-0.03,,
1.211,-0.05,,
1.212,-0.1,,
1.213,-0.11,,
1.214,-0.13,,
1.215,-0.07,,
1.216,-0.07,,
1.217,-0.04,,
1.218,-0.01,,
1.219,0.01,,
1.22,0.02,,
1.221,0.01,,
1.222,-0.01,,
1.223,0.01,,
1.224,0.02,,
1.225,0.05,,
1.226,0.06,,
1.227,0.06,,
1.228,0.06,,
1.229,0.01,,
1.23,-0.03,,
1.231,-0.04,,
1.232,-0.04,,
1.233,-0.08,,
1.234,-0.1,,
1.235,-0.1,,
1.236,-0.08,,
1.237,-0.06,,
1.238,-0.06,,
1.239,-0.01,,
1.24,0.02,,
1.241,-0.01,,
1.242,0,,
1.243,0.04,,
1.244,0.02,,
1.245,0.03,,
1.246,0.03,,
1.247,0.03,,
1.248,0.04,,
1.249,0.04,,
1.25,0,,
1.251,-0.01,,
1.252,-0.05,,
1.253,-0.06,,
1.254,-0.07,,
1.255,-0.09,,
1.256,-0.08,,
1.257,-0.08,,
1.258,-0.05,,
1.259,-0.01,,
1.26,0.01,,
1.261,0.01,,
1.262,0,,
1.263,-0.02,,
1.264,0.01,,
1.265,0.03,,
1.266,0.02,,
1.267,0.04,,
1.268,0.03,,
1.269,0.01,,
1.27,0,,
1.271,-0.03,,
1.272,-0.04,,
1.273,-0.05,,
1.274,-0.08,,
1.275,-0.07,,
1.276,-0.07,,
1.277,-0.07,,
1.278,-0.08,,
1.279,-0.04,,
1.28,-0.01,,
1.281,0.01,,
1.282,0.03,,
1.283,0.02,,
1.284,0.02,,
1.285,0.01,,
1.286,0,,
1.287,0,,
1.288,0.01,,
1.289,0.02,,
1.29,0.03,,
1.291,0.01,,
1.292,-0.03,,
1.293,-0.07,,
1.294,-0.09,,
1.295,-0.1,,
1.296,-0.1,,
1.297,-0.1,,
1.298,-0.09,,
1.299,-0.04,,
1.3,0.01,,
1.301,0.03,,
1.302,0.04,,
1.303,0.04,,
1.304,0.02,,
1.305,0,,
1.306,0,,
1.307,0.01,,
1.308,0.03,,
1.309,0.01,,
1.31,0,,
1.311,0,,
1.312,-0.02,,
1.313,-0.03,,
1.314,-0.07,,
1.315,-0.08,,
1.316,-0.1,,
1.317,-0.09,,
1.318,-0.07,,
1.319,-0.06,,
1.32,-0.02,,
1.321,0,,
1.322,0.04,,
1.323,0.02,,
1.324,0.02,,
1.325,0.01,,
1.326,0.04,,
1.327,0.03,,
1.328,0.04,,
1.329,0.04,,
1.33,0.04,,
1.331,0.06,,
1.332,0.02,,
1.333,-0.04,,
1.334,-0.08,,
1.335,-0.09,,
1.336,-0.12,,
1.337,-0.09,,
1.338,-0.09,,
1.339,-0.07,,
1.34,-0.01,,
1.341,0.01,,
1.342,0.01,,
1.343,0,,
1.344,0.02,,
1.345,0,,
1.346,0.01,,
1.347,0.01,,
1.348,0,,
1.349,0.02,,
1.35,0.02,,
1.351,0.05,,
1.352,0.04,,
1.353,0,,
1.354,-0.05,,
1.355,-0.07,,
1.356,-0.07,,
1.357,-0.06,,
1.358,-0.05,,
1.359,-0.02,,
1.36,-0.03,,
1.361,-0.03,,
1.362,-0.06,,
1.363,-0.03,,
1.364,-0.02,,
1.365,0,,
1.366,0.04,,
1.367,0.03,,
1.368,0.06,,
1.369,0.08,,
1.37,0.05,,
1.371,-0.01,,
1.372,-0.09,,
1.373,-0.07,,
1.374,-0.07,,
1.375,-0.07,,
1.376,-0.09,,
1.377,-0.08,,
1.378,-0.06,,
1.379,-0.01,,
1.38,0.03,,
1.381,0.06,,
1.382,0.02,,
1.383,0.01,,
1.384,0.02,,
1.385,-0.01,,
1.386,-0.13,,
1.387,-0.09,,
1.388,-0.04,,
1.389,-0.05,,
1.39,-0.06,,
1.391,0,,
1.392,0,,
1.393,0,,
1.394,0.01,,
1.395,-0.07,,
1.396,-0.25,,
1.397,-0.44,,
1.398,-0.49,,
1.399,-0.53,,
1.4,-0.6,,
1.401,-0.72,,
1.402,-0.81,,
1.403,-0.65,,
1.404,-0.24,,
1.405,0.17,,
1.406,0.64,,
1.407,0.85,,
1.408,0.64,,
1.409,0.23,,
1.41,-0.2,,
1.411,-0.42,,
1.412,-0.5,,
1.413,-0.38,,
1.414,-0.19,,
1.415,-0.01,,
1.416,0.05,,
1.417,0.26,,
1.418,0.48,,
1.419,0.46,,
1.42,0.16,,
1.421,-0.15,,
1.422,-0.3,,
1.423,-0.27,,
1.424,-0.1,,
1.425,0.01,,
1.426,0.06,,
1.427,0.28,,
1.428,0.47,,
1.429,0.47,,
1.43,0.46,,
1.431,0.49,,
1.432,0.38,,
1.433,0.34,,
1.434,-0.04,,
1.435,-0.21,,
1.436,-0.18,,
1.437,0.07,,
1.438,0.01,,
1.439,-0.07,,
1.44,-0.09,,
1.441,-0.37,,
1.442,-0.67,,
1.443,-0.74,,
1.444,-0.7,,
1.445,-0.74,,
1.446,-0.57,,
1.447,-0.13,,
1.448,0.43,,
1.449,1.32,,
1.45,1.58,,
1.451,1.24,,
1.452,0.81,,
1.453,0.69,,
1.454,0.49,,
1.455,0.41,,
1.456,0.14,,
1.457,-0.19,,
1.458,-0.2,,
1.459,-0.14,,
1.46,-0.19,,
1.461,-0.17,,
1.462,-0.08,,
1.463,0,,
1.464,0.05,,
1.465,0.13,,
1.466,0.06,,
1.467,0,,
1.468,0.04,,
1.469,-0.14,,
1.47,-0.23,,
1.471,0.06,,
1.472,0.09,,
1.473,-0.32,,
1.474,-0.31,,
1.475,0,,
1.476,-0.18,,
1.477,-0.64,,
1.478,-0.69,,
1.479,-0.42,,
1.48,-0.02,,
1.481,0.03,,
1.482,-0.09,,
1.483,-0.08,,
1.484,-0.01,,
1.485,-0.03,,
1.486,0.04,,
1.487,0.16,,
1.488,0.28,,
1.489,0.23,,
1.49,0.04,,
1.491,-0.12,,
1.492,-0.15,,
1.493,-0.1,,
1.494,0.12,,
1.495,0.31,,
1.496,0.08,,
1.497,0.16,,
1.498,-0.26,,
1.499,-0.96,,
1.5,-0.88,,
1.501,-0.43,,
1.502,0.11,,
1.503,0.42,,
1.504,0.22,,
1.505,0.24,,
1.506,0.3,,
1.507,0.03,,
1.508,-0.04,,
1.509,-0.03,,
1.51,-0.04,,
1.511,0.13,,
1.512,0.2,,
1.513,-0.16,,
1.514,-0.2,,
1.515,-0.19,,
1.516,0.1,,
1.517,0.41,,
1.518,0.24,,
1.519,0.09,,
1.52,0.06,,
1.521,-0.05,,
1.522,0.06,,
1.523,-0.18,,
1.524,-0.27,,
1.525,-0.28,,
1.526,-0.25,,
1.527,-0.17,,
1.528,0.03,,
1.529,0.08,,
1.53,0.08,,
1.531,-0.03,,
1.532,-0.04,,
1.533,-0.04,,
1.534,-0.03,,
1.535,-0.02,,
1.536,-0.04,,
1.537,-0.06,,
1.538,-0.1,,
1.539,-0.1,,
1.54,-0.15,,
1.541,-0.12,,
1.542,-0.11,,
1.543,-0.15,,
1.544,-0.25,,
1.545,-0.25,,
1.546,-0.22,,
1.547,-0.21,,
1.548,-0.13,,
1.549,-0.02,,
1.55,0.08,,
1.551,0.1,,
1.552,0.05,,
1.553,-0.07,,
1.554,-0.15,,
1.555,-0.16,,
1.556,-0.12,,
1.557,-0.11,,
1.558,-0.13,,
1.559,-0.15,,
1.56,-0.19,,
1.561,-0.19,,
1.562,-0.26,,
1.563,-0.22,,
1.564,-0.15,,
1.565,-0.05,,
1.566,0.02,,
1.567,0.09,,
1.568,0.14,,
1.569,0.12,,
1.57,0.07,,
1.571,0.04,,
1.572,0.02,,
1.573,0.06,,
1.574,0.1,,
1.575,0.16,,
1.576,0.16,,
1.577,0.06,,
1.578,-0.02,,
1.579,-0.01,,
1.58,-0.02,,
1.581,-0.05,,
1.582,-0.03,,
1.583,-0.01,,
1.584,-0.02,,
1.585,0,,
1.586,0,,
1.587,0.04,,
1.588,0.05,,
1.589,0.03,,
1.59,0.07,,
1.591,0.08,,
1.592,0.14,,
1.593,0.07,,
1.594,-0.03,,
1.595,-0.05,,
1.596,-0.08,,
1.597,-0.08,,
1.598,-0.06,,
1.599,0.01,,
1.6,0.1,,
1.601,0.06,,
1.602,0.06,,
1.603,0.01,,
1.604,0,,
1.605,0,,
1.606,0,,
1.607,-0.03,,
1.608,-0.08,,
1.609,-0.05,,
1.61,0.01,,
1.611,0.04,,
1.612,0.09,,
1.613,0.08,,
1.614,0.06,,
1.615,0.04,,
1.616,0.05,,
1.617,0.07,,
1.618,0.06,,
1.619,0.01,,
1.62,-0.03,,
1.621,-0.05,,
1.622,-0.12,,
1.623,-0.1,,
1.624,-0.04,,
1.625,-0.04,,
1.626,0,,
1.627,-0.01,,
1.628,0.01,,
1.629,0.07,,
1.63,0.07,,
1.631,0.04,,
1.632,0.06,,
1.633,0.04,,
1.634,0.04,,
1.635,0.08,,
1.636,0.08,,
1.637,0.04,,
1.638,0.02,,
1.639,-0.01,,
1.64,-0.06,,
1.641,-0.06,,
1.642,-0.07,,
1.643,-0.07,,
1.644,-0.05,,
1.645,-0.05,,
1.646,-0.02,,
1.647,0.01,,
1.648,0.04,,
1.649,0.03,,
1.65,0.03,,
1.651,0,,
1.652,0,,
1.653,0.02,,
1.654,0.01,,
1.655,0,,
1.656,0.01,,
1.657,0.03,,
1.658,0.03,,
1.659,0.02,,
1.66,0.01,,
1.661,-0.02,,
1.662,-0.05,,
1.663,-0.08,,
1.664,-0.09,,
1.665,-0.08,,
1.666,-0.07,,
1.667,-0.09,,
1.668,-0.04,,
1.669,-0.02,,
1.67,0.01,,
1.671,0.04,,
1.672,0.07,,
1.673,0.09,,
1.674,0.1,,
1.675,0.11,,
1.676,0.13,,
1.677,0.09,,
1.678,0.1,,
1.679,0.13,,
1.68,0.09,,
1.681,0.04,,
1.682,-0.02,,
1.683,-0.07,,
1.684,-0.07,,
1.685,-0.12,,
1.686,-0.1,,
1.687,-0.09,,
1.688,-0.02,,
1.689,0,,
1.69,-0.02,,
1.691,0.02,,
1.692,0.08,,
1.693,0.1,,
1.694,0.09,,
1.695,0.05,,
1.696,0.03,,
1.697,0.01,,
1.698,0,,
1.699,0,,
1.7,0.01,,
1.701,-0.04,,
1.702,-0.06,,
1.703,-0.1,,
1.704,-0.09,,
1.705,-0.11,,
1.706,-0.11,,
1.707,-0.1,,
1.708,-0.06,,
1.709,-0.04,,
1.71,-0.02,,
1.711,0,,
1.712,0.05,,
1.713,0.06,,
1.714,0.06,,
1.715,0.08,,
1.716,0.07,,
1.717,0.08,,
1.718,0.04,,
1.719,0.03,,
1.72,0.02,,
1.721,0,,
1.722,-0.03,,
1.723,-0.04,,
1.724,-0.05,,
1.725,-0.09,,
1.726,-0.07,,
1.727,-0.07,,
1.728,-0.06,,
1.729,-0.06,,
1.73,-0.04,,
1.731,-0.05,,
1.732,-0.02,,
1.733,-0.01,,
1.734,0.02,,
1.735,0.05,,
1.736,0.04,,
1.737,0.08,,
1.738,0.08,,
1.739,0.06,,
1.74,0.06,,
1.741,0.01,,
1.742,-0.01,,
1.743,-0.05,,
1.744,-0.08,,
1.745,-0.06,,
1.746,-0.08,,
1.747,-0.08,,
1.748,-0.05,,
1.749,-0.03,,
1.75,0,,
1.751,0.02,,
1.752,0.02,,
1.753,0.01,,
1.754,0.03,,
1.755,0.04,,
1.756,0.05,,
1.757,0.03,,
1.758,0.05,,
1.759,0.06,,
1.76,0.06,,
1.761,0.05,,
1.762,0.03,,
1.763,-0.02,,
1.764,-0.08,,
1.765,-0.09,,
1.766,-0.1,,
1.767,-0.08,,
1.768,-0.05,,
1.769,0.01,,
1.77,0.01,,
1.771,0.03,,
1.772,0.05,,
1.773,0.03,,
1.774,0.05,,
1.775,0.02,,
1.776,0.07,,
1.777,0.04,,
1.778,0.04,,
1.779,0.03,,
1.78,0.03,,
1.781,0.04,,
1.782,0.01,,
1.783,0,,
1.784,0.01,,
1.785,0,,
1.786,-0.01,,
1.787,-0.04,,
1.788,-0.08,,
1.789,-0.08,,
1.79,-0.04,,
1.791,0.05,,
1.792,0.06,,
1.793,0.08,,
1.794,0.05,,
1.795,-0.03,,
1.796,0,,
1.797,0,,
1.798,0.03,,
1.799,0.05,,
1.8,0.03,,
1.801,0.03,,
1.802,0.04,,
1.803,0.01,,
1.804,-0.02,,
1.805,-0.05,,
1.806,-0.03,,
1.807,-0.07,,
1.808,-0.05,,
1.809,-0.04,,
1.81,-0.05,,
1.811,-0.01,,
1.812,0,,
1.813,0.02,,
1.814,0.04,,
1.815,0.05,,
1.816,0.03,,
1.817,0.03,,
1.818,0.03,,
1.819,0.02,,
1.82,0.03,,
1.821,0.03,,
1.822,0.03,,
1.823,0,,
1.824,-0.02,,
1.825,-0.04,,
1.826,-0.07,,
1.827,-0.06,,
1.828,-0.03,,
1.829,-0.03,,
1.83,-0.02,,
1.831,-0.03,,
1.832,-0.04,,
1.833,0,,
1.834,0,,
1.835,0,,
1.836,0.01,,
1.837,0.04,,
1.838,0.04,,
1.839,0.04,,
1.84,0.04,,
1.841,0.03,,
1.842,0.03,,
1.843,0.01,,
1.844,0,,
1.845,-0.03,,
1.846,-0.05,,
1.847,-0.05,,
1.848,-0.08,,
1.849,-0.07,,
1.85,-0.07,,
1.851,-0.03,,
1.852,-0.02,,
1.853,0,,
1.854,0.01,,
1.855,0.02,,
1.856,0.02,,
1.857,0.02,,
1.858,0.04,,
1.859,0.03,,
1.86,0.04,,
1.861,0.05,,
1.862,0.04,,
1.863,0.01,,
1.864,0.01,,
1.865,0.01,,
1.866,-0.03,,
1.867,-0.07,,
1.868,-0.11,,
1.869,-0.11,,
1.87,-0.11,,
1.871,-0.09,,
1.872,-0.07,,
1.873,-0.02,,
1.874,-0.01,,
1.875,0,,
1.876,0,,
1.877,0.01,,
1.878,0.01,,
1.879,0.05,,
1.88,0.04,,
1.881,0.05,,
1.882,0.08,,
1.883,0.09,,
1.884,0.04,,
1.885,0.03,,
1.886,-0.03,,
1.887,-0.1,,
1.888,-0.15,,
1.889,-0.11,,
1.89,-0.13,,
1.891,-0.1,,
1.892,-0.06,,
1.893,0,,
1.894,0,,
1.895,0.03,,
1.896,0.02,,
1.897,0.01,,
1.898,0.03,,
1.899,0.01,,
1.9,0.02,,
1.901,0.01,,
1.902,0.03,,
1.903,0.07,,
1.904,0.06,,
1.905,0.02,,
1.906,0,,
1.907,-0.06,,
1.908,-0.08,,
1.909,-0.08,,
1.91,-0.04,,
1.911,-0.05,,
1.912,-0.09,,
1.913,-0.06,,
1.914,-0.06,,
1.915,0,,
1.916,0.02,,
1.917,0.01,,
1.918,0.04,,
1.919,0.03,,
1.92,0.04,,
1.921,0.03,,
1.922,0.04,,
1.923,0.03,,
1.924,0.04,,
1.925,0.01,,
1.926,-0.01,,
1.927,-0.01,,
1.928,-0.04,,
1.929,-0.08,,
1.93,-0.07,,
1.931,-0.1,,
1.932,-0.12,,
1.933,-0.06,,
1.934,-0.01,,
1.935,0.02,,
1.936,0,,
1.937,0.01,,
1.938,0.03,,
1.939,0.01,,
1.94,0.02,,
1.941,0.03,,
1.942,0.04,,
1.943,0.04,,
1.944,0.04,,
1.945,0.02,,
1.946,-0.02,,
1.947,-0.03,,
1.948,-0.03,,
1.949,-0.06,,
1.95,-0.07,,
1.951,-0.07,,
1.952,-0.06,,
1.953,-0.03,,
1.954,-0.01,,
1.955,-0.01,,
1.956,0.01,,
1.957,0.04,,
1.958,0.04,,
1.959,0.05,,
1.96,0.01,,
1.961,0.02,,
1.962,0.05,,
1.963,0.04,,
1.964,0.02,,
1.965,0,,
1.966,0,,
1.967,-0.02,,
1.968,-0.05,,
1.969,-0.07,,
1.97,-0.1,,
1.971,-0.07,,
1.972,-0.06,,
1.973,-0.04,,
1.974,-0.06,,
1.975,-0.06,,
1.976,-0.01,,
1.977,0.02,,
1.978,0.03,,
1.979,0.03,,
1.98,0,,
1.981,0,,
1.982,0.01,,
1.983,0.02,,
1.984,0.04,,
1.985,0.02,,
1.986,0.02,,
1.987,0,,
1.988,-0.01,,
1.989,-0.02,,
1.99,-0.07,,
1.991,-0.07,,
1.992,-0.09,,
1.993,-0.09,,
1.994,-0.07,,
1.995,-0.06,,
1.996,-0.07,,
1.997,-0.06,,
1.998,-0.01,,
1.999,0,,
2,0.03,,
2.001,0.03,,
2.002,0.02,,
2.003,0.01,,
2.004,0.03,,
2.005,0.03,,
2.006,0.04,,
2.007,-0.01,,
2.008,0,,
2.009,-0.02,,
2.01,-0.06,,
2.011,-0.08,,
2.012,-0.09,,
2.013,-0.09,,
2.014,-0.07,,
2.015,-0.05,,
2.016,-0.03,,
2.017,0,,
2.018,0.02,,
2.019,0.02,,
2.02,-0.01,,
2.021,0,,
2.022,0.03,,
2.023,0.03,,
2.024,0.03,,
2.025,0.03,,
2.026,0.03,,
2.027,0.02,,
2.028,0,,
2.029,-0.01,,
2.03,-0.05,,
2.031,-0.09,,
2.032,-0.09,,
2.033,-0.09,,
2.034,-0.09,,
2.035,-0.05,,
2.036,-0.04,,
2.037,-0.01,,
2.038,-0.02,,
2.039,0,,
2.04,0,,
2.041,0.04,,
2.042,0.06,,
2.043,0.05,,
2.044,0.04,,
2.045,0.04,,
2.046,0.05,,
2.047,0.03,,
2.048,0.02,,
2.049,0,,
2.05,-0.04,,
2.051,-0.06,,
2.052,-0.08,,
2.053,-0.1,,
2.054,-0.1,,
2.055,-0.08,,
2.056,-0.07,,
2.057,-0.01,,
2.058,0,,
2.059,0.02,,
2.06,0,,
2.061,0,,
2.062,0.02,,
2.063,0.02,,
2.064,0.03,,
2.065,0.03,,
2.066,0.08,,
2.067,0.06,,
2.068,0.06,,
2.069,0.04,,
2.07,0,,
2.071,-0.05,,
2.072,-0.11,,
2.073,-0.11,,
2.074,-0.11,,
2.075,-0.09,,
2.076,-0.05,,
2.077,-0.06,,
2.078,-0.02,,
2.079,0.02,,
2.08,0.03,,
2.081,0.01,,
2.082,0.03,,
2.083,0.02,,
2.084,0.03,,
2.085,0.06,,
2.086,0.08,,
2.087,0.07,,
2.088,0.03,,
2.089,0.03,,
2.09,-0.02,,
2.091,-0.03,,
2.092,-0.05,,
2.093,-0.09,,
2.094,-0.1,,
2.095,-0.1,,
2.096,-0.1,,
2.097,-0.08,,
2.098,0.01,,
2.099,0.04,,
2.1,0.03,,
2.101,0.01,,
2.102,0.01,,
2.103,0.03,,
2.104,0.02,,
2.105,0.01,,
2.106,0.04,,
2.107,0.05,,
2.108,0.04,,
2.109,0.03,,
2.11,0.02,,
2.111,-0.06,,
2.112,-0.08,,
2.113,-0.09,,
2.114,-0.09,,
2.115,-0.05,,
2.116,-0.06,,
2.117,-0.05,,
2.118,-0.01,,
2.119,0,,
2.12,0.01,,
2.121,0.01,,
2.122,0.01,,
2.123,0,,
2.124,0.02,,
2.125,0.04,,
2.126,0.05,,
2.127,0.05,,
2.128,0.04,,
2.129,0.01,,
2.13,0,,
2.131,-0.01,,
2.132,-0.04,,
2.133,-0.05,,
2.134,-0.05,,
2.135,-0.06,,
2.136,-0.04,,
2.137,-0.06,,
2.138,-0.02,,
2.139,-0.01,,
2.14,0.01,,
2.141,0,,
2.142,-0.03,,
2.143,-0.04,,
2.144,-0.04,,
2.145,0.02,,
2.146,0.05,,
2.147,0.04,,
2.148,0.03,,
2.149,0.06,,
2.15,0.04,,
2.151,0.01,,
2.152,-0.01,,
2.153,-0.03,,
2.154,-0.07,,
2.155,-0.07,,
2.156,-0.06,,
2.157,-0.02,,
2.158,-0.03,,
2.159,-0.02,,
2.16,0,,
2.161,0.02,,
2.162,0.01,,
2.163,0.01,,
2.164,-0.01,,
2.165,0,,
2.166,-0.01,,
2.167,0,,
2.168,0.05,,
2.169,0.11,,
2.17,0.07,,
2.171,0.02,,
2.172,-0.02,,
2.173,-0.08,,
2.174,-0.11,,
2.175,-0.13,,
2.176,-0.11,,
2.177,-0.06,,
2.178,-0.03,,
2.179,0.01,,
2.18,0.05,,
2.181,0.06,,
2.182,-0.02,,
2.183,-0.12,,
2.184,-0.15,,
2.185,-0.1,,
2.186,-0.09,,
2.187,-0.05,,
2.188,-0.02,,
2.189,0.04,,
2.19,0.12,,
2.191,0.08,,
2.192,0.06,,
2.193,0.06,,
2.194,0.05,,
2.195,-0.03,,
2.196,-0.08,,
2.197,-0.07,,
2.198,-0.17,,
2.199,-0.21,,
2.2,-0.25,,
2.201,-0.25,,
2.202,-0.27,,
2.203,-0.33,,
2.204,-0.35,,
2.205,-0.27,,
2.206,-0.13,,
2.207,0.03,,
2.208,0.1,,
2.209,0.02,,
2.21,-0.04,,
2.211,-0.09,,
2.212,-0.07,,
2.213,0.09,,
2.214,0.14,,
2.215,-0.01,,
2.216,-0.17,,
2.217,-0.28,,
2.218,-0.19,,
2.219,-0.15,,
2.22,-0.14,,
2.221,-0.08,,
2.222,0.03,,
2.223,0,,
2.224,-0.01,,
2.225,-0.09,,
2.226,-0.03,,
2.227,0.37,,
2.228,0.6,,
2.229,0.46,,
2.23,0.29,,
2.231,0.07,,
2.232,-0.13,,
2.233,-0.33,,
2.234,-0.6,,
2.235,-0.89,,
2.236,-1,,
2.237,-0.89,,
2.238,-0.39,,
2.239,0.15,,
2.24,0.47,,
2.241,0.65,,
2.242,0.75,,
2.243,0.93,,
2.244,0.94,,
2.245,0.83,,
2.246,0.66,,
2.247,0.49,,
2.248,0.39,,
2.249,0.32,,
2.25,0.14,,
2.251,-0.06,,
2.252,-0.03,,
2.253,0.11,,
2.254,-0.12,,
2.255,-0.31,,
2.256,-0.21,,
2.257,0.09,,
2.258,0.21,,
2.259,0.35,,
2.26,0.49,,
2.261,0.43,,
2.262,0.32,,
2.263,0.21,,
2.264,0.09,,
2.265,-0.05,,
2.266,-0.24,,
2.267,-0.16,,
2.268,0,,
2.269,0.06,,
2.27,0,,
2.271,-0.06,,
2.272,0,,
2.273,0.05,,
2.274,-0.26,,
2.275,-0.49,,
2.276,-0.48,,
2.277,-0.5,,
2.278,-0.44,,
2.279,-0.27,,
2.28,-0.21,,
2.281,-0.24,,
2.282,-0.27,,
2.283,-0.12,,
2.284,0.02,,
2.285,0.06,,
2.286,-0.02,,
2.287,0.21,,
2.288,0.35,,
2.289,0.14,,
2.29,0.14,,
2.291,0.07,,
2.292,-0.32,,
2.293,-0.4,,
2.294,-0.34,,
2.295,-0.27,,
2.296,-0.16,,
2.297,-0.07,,
2.298,-0.07,,
2.299,-0.1,,
2.3,-0.36,,
2.301,-0.17,,
2.302,-0.26,,
2.303,-0.34,,
2.304,-0.05,,
2.305,0.22,,
2.306,0.22,,
2.307,0.18,,
2.308,0.11,,
2.309,0.06,,
2.31,0.11,,
2.311,0.27,,
2.312,0.3,,
2.313,0.22,,
2.314,0.04,,
2.315,-0.02,,
2.316,-0.06,,
2.317,-0.02,,
2.318,0.05,,
2.319,0.06,,
2.32,0.05,,
2.321,-0.14,,
2.322,-0.28,,
2.323,-0.27,,
2.324,-0.15,,
2.325,-0.1,,
2.326,0.04,,
2.327,-0.02,,
2.328,0,,
2.329,0.1,,
2.33,0.16,,
2.331,0.26,,
2.332,0.13,,
2.333,0.06,,
2.334,0.24,,
2.335,0.23,,
2.336,0.08,,
2.337,0.02,,
2.338,-0.22,,
2.339,-0.16,,
2.34,-0.04,,
2.341,0.04,,
2.342,0.06,,
2.343,0.14,,
2.344,-0.08,,
2.345,-0.27,,
2.346,-0.23,,
2.347,-0.19,,
2.348,-0.07,,
2.349,0.07,,
2.35,0.18,,
2.351,0.18,,
2.352,0.15,,
2.353,0.07,,
2.354,0.03,,
2.355,-0.01,,
2.356,-0.07,,
2.357,-0.08,,
2.358,-0.08,,
2.359,-0.09,,
2.36,-0.04,,
2.361,-0.09,,
2.362,-0.14,,
2.363,-0.14,,
2.364,-0.08,,
2.365,-0.04,,
2.366,-0.01,,
2.367,-0.01,,
2.368,-0.09,,
2.369,-0.08,,
2.37,-0.04,,
2.371,-0.02,,
2.372,0.14,,
2.373,0.21,,
2.374,0.15,,
2.375,0.03,,
2.376,-0.04,,
2.377,-0.07,,
2.378,-0.05,,
2.379,-0.08,,
2.38,-0.11,,
2.381,-0.17,,
2.382,-0.22,,
2.383,-0.26,,
2.384,-0.15,,
2.385,0.03,,
2.386,0.17,,
2.387,0.16,,
2.388,0.1,,
2.389,-0.01,,
2.39,-0.03,,
2.391,-0.01,,
2.392,-0.01,,
2.393,-0.03,,
2.394,-0.15,,
2.395,-0.22,,
2.396,-0.2,,
2.397,-0.23,,
2.398,-0.16,,
2.399,-0.02,,
2.4,0.16,,
2.401,0.17,,
2.402,0.08,,
2.403,-0.06,,
2.404,-0.11,,
2.405,-0.08,,
2.406,-0.07,,
2.407,-0.07,,
2.408,-0.05,,
2.409,-0.07,,
2.41,-0.06,,
2.411,0.02,,
2.412,0.08,,
2.413,0.11,,
2.414,0.09,,
2.415,0.06,,
2.416,0.04,,
2.417,0,,
2.418,-0.04,,
2.419,-0.09,,
2.42,-0.08,,
2.421,-0.08,,
2.422,-0.11,,
2.423,-0.1,,
2.424,-0.09,,
2.425,-0.05,,
2.426,-0.04,,
2.427,-0.04,,
2.428,-0.03,,
2.429,-0.03,,
2.43,0,,
2.431,-0.01,,
2.432,0.02,,
2.433,0.03,,
2.434,0.04,,
2.435,0.06,,
2.436,0.02,,
2.437,0.02,,
2.438,0.03,,
2.439,-0.02,,
2.44,-0.05,,
2.441,-0.08,,
2.442,-0.1,,
2.443,-0.09,,
2.444,-0.1,,
2.445,-0.07,,
2.446,-0.04,,
2.447,-0.04,,
2.448,0,,
2.449,0.02,,
2.45,0,,
2.451,0.02,,
2.452,0.01,,
2.453,0.01,,
2.454,0.02,,
2.455,0.05,,
2.456,0.05,,
2.457,0.05,,
2.458,0.06,,
2.459,0,,
2.46,-0.02,,
2.461,-0.06,,
2.462,-0.08,,
2.463,-0.1,,
2.464,-0.07,,
2.465,-0.08,,
2.466,-0.05,,
2.467,-0.04,,
2.468,-0.02,,
2.469,-0.02,,
2.47,-0.01,,
2.471,-0.02,,
2.472,-0.02,,
2.473,0,,
2.474,0.02,,
2.475,0.04,,
2.476,0.04,,
2.477,0.05,,
2.478,0.02,,
2.479,0.03,,
2.48,0,,
2.481,-0.03,,
2.482,-0.07,,
2.483,-0.07,,
2.484,-0.08,,
2.485,-0.07,,
2.486,-0.05,,
2.487,-0.06,,
2.488,-0.08,,
2.489,-0.03,,
2.49,-0.03,,
2.491,-0.02,,
2.492,0,,
2.493,0.03,,
2.494,0.06,,
2.495,0.11,,
2.496,0.18,,
2.497,0.19,,
2.498,0.14,,
2.499,0.08,,
2.5,0,,
2.501,-0.02,,
2.502,-0.08,,
2.503,-0.07,,
2.504,-0.08,,
2.505,-0.06,,
2.506,-0.06,,
2.507,-0.01,,
2.508,0,,
2.509,0.02,,
2.51,0.02,,
2.511,-0.01,,
2.512,0,,
2.513,0.01,,
2.514,-0.01,,
2.515,0.01,,
2.516,0.04,,
2.517,0.05,,
2.518,0.06,,
2.519,0.02,,
2.52,-0.02,,
2.521,-0.05,,
2.522,-0.11,,
2.523,-0.09,,
2.524,-0.08,,
2.525,-0.06,,
2.526,-0.05,,
2.527,-0.02,,
2.528,-0.03,,
2.529,-0.02,,
2.53,0,,
2.531,0.02,,
2.532,0,,
2.533,0.02,,
2.534,0.03,,
2.535,0.02,,
2.536,0.05,,
2.537,0.06,,
2.538,0.04,,
2.539,0.03,,
2.54,0,,
2.541,-0.03,,
2.542,-0.06,,
2.543,-0.1,,
2.544,-0.09,,
2.545,-0.09,,
2.546,-0.08,,
2.547,-0.07,,
2.548,-0.03,,
2.549,-0.03,,
2.55,-0.01,,
2.551,0,,
2.552,0.01,,
2.553,0,,
2.554,0.04,,
2.555,0.02,,
2.556,0.03,,
2.557,0.04,,
2.558,0.04,,
2.559,0.01,,
2.56,0.01,,
2.561,0,,
2.562,-0.02,,
2.563,-0.08,,
2.564,-0.08,,
2.565,-0.07,,
2.566,-0.08,,
2.567,-0.07,,
2.568,-0.04,,
2.569,0.02,,
2.57,0.02,,
2.571,0.03,,
2.572,0.03,,
2.573,0.04,,
2.574,0.05,,
2.575,0.04,,
2.576,0.02,,
2.577,0.02,,
2.578,0.05,,
2.579,0.05,,
2.58,0.02,,
2.581,0.02,,
2.582,0.01,,
2.583,-0.01,,
2.584,-0.03,,
2.585,-0.05,,
2.586,-0.05,,
2.587,-0.07,,
2.588,-0.05,,
2.589,0,,
2.59,0.01,,
2.591,0,,
2.592,0.02,,
2.593,0.01,,
2.594,0.01,,
2.595,0.07,,
2.596,0.06,,
2.597,0.05,,
2.598,0.06,,
2.599,0.07,,
2.6,0.04,,
2.601,0.01,,
2.602,0.01,,
2.603,-0.02,,
2.604,-0.06,,
2.605,-0.1,,
2.606,-0.09,,
2.607,-0.06,,
2.608,-0.05,,
2.609,-0.01,,
2.61,0.03,,
2.611,0,,
2.612,0.02,,
2.613,0.02,,
2.614,0.04,,
2.615,0.02,,
2.616,0.03,,
2.617,0.03,,
2.618,0.07,,
2.619,0.04,,
2.62,0.03,,
2.621,0.04,,
2.622,0,,
2.623,-0.01,,
2.624,-0.05,,
2.625,-0.05,,
2.626,-0.06,,
2.627,-0.05,,
2.628,-0.03,,
2.629,-0.01,,
2.63,0.04,,
2.631,0.02,,
2.632,0.05,,
2.633,0.06,,
2.634,0.05,,
2.635,0.06,,
2.636,0.06,,
2.637,0.04,,
2.638,0.03,,
2.639,0.03,,
2.64,0.02,,
2.641,0,,
2.642,0,,
2.643,0.01,,
2.644,-0.02,,
2.645,-0.02,,
2.646,-0.06,,
2.647,-0.06,,
2.648,-0.05,,
2.649,-0.04,,
2.65,-0.01,,
2.651,0,,
2.652,0.01,,
2.653,0.01,,
2.654,0.02,,
2.655,0.02,,
2.656,0.03,,
2.657,0.02,,
2.658,0.02,,
2.659,0.04,,
2.66,0.07,,
2.661,0.1,,
2.662,0.06,,
2.663,0,,
2.664,-0.01,,
2.665,-0.04,,
2.666,-0.1,,
2.667,-0.09,,
2.668,-0.09,,
2.669,-0.09,,
2.67,-0.03,,
2.671,0,,
2.672,0.05,,
2.673,0.09,,
2.674,0.1,,
2.675,0.11,,
2.676,0.08,,
2.677,0.02,,
2.678,0.01,,
2.679,0.04,,
2.68,0.02,,
2.681,0,,
2.682,0,,
2.683,-0.02,,
2.684,-0.05,,
2.685,-0.04,,
2.686,-0.06,,
2.687,-0.08,,
2.688,-0.06,,
2.689,-0.07,,
2.69,-0.06,,
2.691,-0.03,,
2.692,0,,
2.693,0.04,,
2.694,0.06,,
2.695,0.05,,
2.696,0.04,,
2.697,0.04,,
2.698,0.01,,
2.699,0.02,,
2.7,0.03,,
2.701,0.05,,
2.702,0.04,,
2.703,0.04,,
2.704,0,,
2.705,-0.02,,
2.706,-0.04,,
2.707,-0.07,,
2.708,-0.08,,
2.709,-0.08,,
2.71,-0.07,,
2.711,-0.05,,
2.712,-0.01,,
2.713,0.05,,
2.714,0.07,,
2.715,0.06,,
2.716,0.04,,
2.717,0.06,,
2.718,0.08,,
2.719,0.06,,
2.72,0.06,,
2.721,0.05,,
2.722,0.02,,
2.723,0,,
2.724,0,,
2.725,-0.05,,
2.726,-0.04,,
2.727,-0.1,,
2.728,-0.09,,
2.729,-0.09,,
2.73,-0.06,,
2.731,-0.06,,
2.732,0,,
2.733,0,,
2.734,0.03,,
2.735,0.05,,
2.736,0.03,,
2.737,0.01,,
2.738,0.03,,
2.739,0.05,,
2.74,0.03,,
2.741,0.05,,
2.742,0.06,,
2.743,0.04,,
2.744,0.01,,
2.745,0,,
2.746,-0.01,,
2.747,-0.04,,
2.748,-0.05,,
2.749,-0.05,,
2.75,-0.01,,
2.751,0,,
2.752,0,,
2.753,0.02,,
2.754,0,,
2.755,0,,
2.756,-0.04,,
2.757,-0.05,,
2.758,0,,
2.759,0.04,,
2.76,0.03,,
2.761,0.02,,
2.762,0.03,,
2.763,0.05,,
2.764,0.02,,
2.765,0,,
2.766,0.01,,
2.767,-0.02,,
2.768,-0.05,,
2.769,-0.04,,
2.77,-0.07,,
2.771,-0.07,,
2.772,-0.08,,
2.773,-0.06,,
2.774,-0.04,,
2.775,0.01,,
2.776,0.05,,
2.777,0.02,,
2.778,0.03,,
2.779,0.02,,
2.78,0.03,,
2.781,0.05,,
2.782,0.08,,
2.783,0.07,,
2.784,0.08,,
2.785,0.04,,
2.786,0,,
2.787,-0.05,,
2.788,-0.07,,
2.789,-0.07,,
2.79,-0.1,,
2.791,-0.09,,
2.792,-0.08,,
2.793,-0.05,,
2.794,-0.02,,
2.795,0.02,,
2.796,0.02,,
2.797,0.02,,
2.798,0.02,,
2.799,0.02,,
2.8,0.02,,
2.801,0.01,,
2.802,0.03,,
2.803,0.03,,
2.804,0.04,,
2.805,0.03,,
2.806,0.03,,
2.807,-0.03,,
2.808,-0.06,,
2.809,-0.07,,
2.81,-0.1,,
2.811,-0.1,,
2.812,-0.07,,
2.813,-0.04,,
2.814,-0.03,,
2.815,0,,
2.816,0.02,,
2.817,0.02,,
2.818,0.01,,
2.819,0.05,,
2.82,0.07,,
2.821,0.06,,
2.822,0.03,,
2.823,0.05,,
2.824,0.02,,
2.825,0.03,,
2.826,0.01,,
2.827,-0.02,,
2.828,-0.04,,
2.829,-0.07,,
2.83,-0.07,,
2.831,-0.06,,
2.832,-0.07,,
2.833,-0.07,,
2.834,-0.05,,
2.835,0,,
2.836,0.01,,
2.837,0.02,,
2.838,0.04,,
2.839,0.04,,
2.84,0.03,,
2.841,0.04,,
2.842,0.03,,
2.843,0.03,,
2.844,0.02,,
2.845,0.03,,
2.846,0.04,,
2.847,0.02,,
2.848,0.02,,
2.849,0.01,,
2.85,-0.02,,
2.851,-0.04,,
2.852,-0.07,,
2.853,-0.08,,
2.854,-0.11,,
2.855,-0.09,,
2.856,-0.05,,
2.857,-0.01,,
2.858,0.03,,
2.859,0.02,,
2.86,0.02,,
2.861,0.03,,
2.862,0.04,,
2.863,0.05,,
2.864,0.06,,
2.865,0.09,,
2.866,0.06,,
2.867,0,,
2.868,-0.01,,
2.869,-0.05,,
2.87,-0.05,,
2.871,-0.07,,
2.872,-0.08,,
2.873,-0.08,,
2.874,-0.08,,
2.875,-0.05,,
2.876,-0.03,,
2.877,0,,
2.878,0.02,,
2.879,0.03,,
2.88,0.05,,
2.881,0.03,,
2.882,0.03,,
2.883,0.03,,
2.884,0.05,,
2.885,0.03,,
2.886,0.03,,
2.887,0.01,,
2.888,0,,
2.889,0,,
2.89,-0.03,,
2.891,-0.08,,
2.892,-0.07,,
2.893,-0.1,,
2.894,-0.07,,
2.895,-0.07,,
2.896,-0.01,,
2.897,0,,
2.898,0.04,,
2.899,0.03,,
2.9,0.06,,
2.901,0.06,,
2.902,0.02,,
2.903,0.04,,
2.904,0.02,,
2.905,0.04,,
2.906,0.04,,
2.907,0.03,,
2.908,0.02,,
2.909,-0.01,,
2.91,-0.04,,
2.911,-0.07,,
2.912,-0.04,,
2.913,-0.05,,
2.914,-0.07,,
2.915,-0.06,,
2.916,-0.04,,
2.917,-0.02,,
2.918,0.01,,
2.919,0.01,,
2.92,0.03,,
2.921,0.04,,
2.922,0.02,,
2.923,0.01,,
2.924,0.03,,
2.925,0.03,,
2.926,0.04,,
2.927,0.03,,
2.928,0.02,,
2.929,-0.01,,
2.93,-0.03,,
2.931,-0.05,,
2.932,-0.08,,
2.933,-0.07,,
2.934,-0.09,,
2.935,-0.07,,
2.936,-0.04,,
2.937,0,,
2.938,0,,
2.939,0.01,,
2.94,0.01,,
2.941,0.03,,
2.942,0.03,,
2.943,0.03,,
2.944,0.05,,
2.945,0.06,,
2.946,0.07,,
2.947,0.08,,
2.948,0.06,,
2.949,0.02,,
2.95,-0.01,,
2.951,-0.05,,
2.952,-0.07,,
2.953,-0.07,,
2.954,-0.11,,
2.955,-0.1,,
2.956,-0.09,,
2.957,-0.05,,
2.958,0.01,,
2.959,0.04,,
2.96,0.05,,
2.961,0.04,,
2.962,0.02,,
2.963,0.05,,
2.964,0,,
2.965,0.04,,
2.966,0.04,,
2.967,0.03,,
2.968,0.07,,
2.969,0.01,,
2.97,0,,
2.971,-0.04,,
2.972,-0.05,,
2.973,-0.06,,
2.974,-0.05,,
2.975,-0.08,,
2.976,-0.08,,
2.977,-0.05,,
2.978,-0.01,,
2.979,0,,
2.98,0,,
2.981,0.01,,
2.982,0.01,,
2.983,0.02,,
2.984,0.02,,
2.985,0.02,,
2.986,0.02,,
2.987,0.03,,
2.988,0.02,,
2.989,0.07,,
2.99,0.04,,
2.991,0,,
2.992,-0.03,,
2.993,-0.07,,
2.994,-0.07,,
2.995,-0.04,,
2.996,-0.06,,
2.997,-0.07,,
2.998,-0.02,,
2.999,0,,
3,0.02,,
3.001,0.03,,
3.002,0.02,,
3.003,0.02,,
3.004,0.03,,
3.005,0.02,,
3.006,0.04,,
3.007,0.04,,
3.008,0.03,,
3.009,0.01,,
3.01,-0.01,,
3.011,-0.02,,
3.012,-0.03,,
3.013,-0.03,,
3.014,-0.08,,
3.015,-0.07,,
3.016,-0.06,,
3.017,-0.07,,
3.018,-0.05,,
3.019,0.01,,
3.02,0.02,,
3.021,0.02,,
3.022,0.04,,
3.023,0.06,,
3.024,0.04,,
3.025,0.04,,
3.026,0.04,,
3.027,0.08,,
3.028,0.05,,
3.029,0.05,,
3.03,0.04,,
3.031,-0.01,,
3.032,-0.06,,
3.033,-0.08,,
3.034,-0.07,,
3.035,-0.07,,
3.036,-0.12,,
3.037,-0.12,,
3.038,-0.08,,
3.039,0.02,,
3.04,0.08,,
3.041,0.08,,
3.042,0.07,,
3.043,0,,
3.044,-0.06,,
3.045,-0.06,,
3.046,-0.07,,
3.047,-0.11,,
3.048,-0.06,,
3.049,0.01,,
3.05,0.07,,
3.051,0,,
3.052,-0.11,,
3.053,-0.11,,
3.054,-0.12,,
3.055,-0.11,,
3.056,-0.03,,
3.057,0.03,,
3.058,0.02,,
3.059,-0.07,,
3.06,-0.12,,
3.061,-0.19,,
3.062,-0.32,,
3.063,-0.47,,
3.064,-0.23,,
3.065,0.04,,
3.066,0.23,,
3.067,0.22,,
3.068,0.13,,
3.069,-0.05,,
3.07,-0.09,,
3.071,-0.21,,
3.072,-0.5,,
3.073,-0.56,,
3.074,-0.48,,
3.075,-0.47,,
3.076,-0.17,,
3.077,0.18,,
3.078,0.17,,
3.079,0.04,,
3.08,-0.08,,
3.081,-0.15,,
3.082,0.23,,
3.083,0.4,,
3.084,0.32,,
3.085,-0.13,,
3.086,-0.34,,
3.087,-0.1,,
3.088,0.11,,
3.089,0.16,,
3.09,0.18,,
3.091,-0.01,,
3.092,-0.22,,
3.093,-0.44,,
3.094,-0.38,,
3.095,-0.02,,
3.096,0.39,,
3.097,0.59,,
3.098,0.52,,
3.099,0.21,,
3.1,-0.02,,
3.101,0.14,,
3.102,0.27,,
3.103,0.44,,
3.104,0.24,,
3.105,0.08,,
3.106,0.22,,
3.107,0.3,,
3.108,0.43,,
3.109,0.19,,
3.11,0.16,,
3.111,0.31,,
3.112,0.3,,
3.113,0.18,,
3.114,0.18,,
3.115,0.31,,
3.116,-0.08,,
3.117,-0.07,,
3.118,0.33,,
3.119,0.51,,
3.12,0.2,,
3.121,-0.23,,
3.122,-0.36,,
3.123,-0.26,,
3.124,-0.07,,
3.125,0.01,,
3.126,-0.1,,
3.127,-0.21,,
3.128,-0.18,,
3.129,-0.14,,
3.13,-0.06,,
3.131,0.08,,
3.132,0.2,,
3.133,0.24,,
3.134,0.12,,
3.135,-0.13,,
3.136,-0.29,,
3.137,-0.25,,
3.138,-0.16,,
3.139,-0.13,,
3.14,0.04,,
3.141,0.19,,
3.142,0.32,,
3.143,0.17,,
3.144,0,,
3.145,-0.13,,
3.146,-0.15,,
3.147,-0.18,,
3.148,-0.06,,
3.149,0.06,,
3.15,0.26,,
3.151,0.07,,
3.152,-0.26,,
3.153,-0.19,,
3.154,-0.35,,
3.155,-0.3,,
3.156,-0.11,,
3.157,-0.02,,
3.158,0.1,,
3.159,-0.12,,
3.16,-0.38,,
3.161,-0.43,,
3.162,-0.32,,
3.163,-0.07,,
3.164,-0.47,,
3.165,-0.59,,
3.166,-0.2,,
3.167,0.15,,
3.168,0.28,,
3.169,0.2,,
3.17,0.28,,
3.171,0.3,,
3.172,0.38,,
3.173,0.37,,
3.174,0.32,,
3.175,0.32,,
3.176,0.21,,
3.177,0.02,,
3.178,-0.07,,
3.179,-0.09,,
3.18,-0.13,,
3.181,-0.12,,
3.182,-0.13,,
3.183,-0.04,,
3.184,-0.01,,
3.185,-0.05,,
3.186,-0.03,,
3.187,-0.15,,
3.188,-0.01,,
3.189,-0.04,,
3.19,-0.14,,
3.191,-0.01,,
3.192,0.32,,
3.193,0.17,,
3.194,-0.18,,
3.195,-0.28,,
3.196,-0.17,,
3.197,-0.11,,
3.198,-0.06,,
3.199,-0.06,,
3.2,-0.13,,
3.201,-0.18,,
3.202,-0.05,,
3.203,0.17,,
3.204,0.16,,
3.205,0.02,,
3.206,-0.02,,
3.207,-0.09,,
3.208,-0.04,,
3.209,-0.05,,
3.21,-0.02,,
3.211,0.02,,
3.212,0.01,,
3.213,-0.03,,
3.214,-0.05,,
3.215,-0.05,,
3.216,0.07,,
3.217,-0.07,,
3.218,-0.04,,
3.219,0.04,,
3.22,0.02,,
3.221,0,,
3.222,-0.01,,
3.223,-0.14,,
3.224,-0.16,,
3.225,-0.07,,
3.226,-0.01,,
3.227,-0.11,,
3.228,-0.02,,
3.229,0.02,,
3.23,0.07,,
3.231,0.07,,
3.232,0.02,,
3.233,0.02,,
3.234,-0.01,,
3.235,-0.08,,
3.236,-0.11,,
3.237,-0.16,,
3.238,-0.14,,
3.239,-0.12,,
3.24,-0.06,,
3.241,0,,
3.242,0.02,,
3.243,0.02,,
3.244,-0.03,,
3.245,-0.02,,
3.246,0,,
3.247,-0.01,,
3.248,-0.03,,
3.249,0.02,,
3.25,0.1,,
3.251,0.15,,
3.252,0.1,,
3.253,0.06,,
3.254,0,,
3.255,0.03,,
3.256,-0.04,,
3.257,-0.12,,
3.258,-0.21,,
3.259,-0.27,,
3.26,-0.24,,
3.261,-0.22,,
3.262,-0.14,,
3.263,-0.06,,
3.264,-0.02,,
3.265,0.04,,
3.266,0.06,,
3.267,0.06,,
3.268,0.1,,
3.269,0.12,,
3.27,0.14,,
3.271,0.19,,
3.272,0.16,,
3.273,0.05,,
3.274,0.03,,
3.275,0.01,,
3.276,0,,
3.277,-0.01,,
3.278,-0.02,,
3.279,-0.06,,
3.28,-0.09,,
3.281,-0.08,,
3.282,-0.08,,
3.283,-0.06,,
3.284,-0.08,,
3.285,-0.06,,
3.286,-0.04,,
3.287,-0.03,,
3.288,-0.02,,
3.289,0.04,,
3.29,0.05,,
3.291,0.04,,
3.292,0,,
3.293,0.01,,
3.294,0,,
3.295,0.03,,
3.296,0,,
3.297,-0.01,,
3.298,-0.02,,
3.299,-0.04,,
3.3,-0.07,,
3.301,-0.1,,
3.302,-0.1,,
3.303,-0.08,,
3.304,-0.07,,
3.305,-0.03,,
3.306,-0.04,,
3.307,0,,
3.308,0.02,,
3.309,0.01,,
3.31,0.01,,
3.311,0,,
3.312,0,,
3.313,0.02,,
3.314,0.02,,
3.315,0.02,,
3.316,0.02,,
3.317,0,,
3.318,0,,
3.319,-0.06,,
3.32,-0.07,,
3.321,-0.11,,
3.322,-0.1,,
3.323,-0.08,,
3.324,-0.09,,
3.325,-0.05,,
3.326,-0.03,,
3.327,0,,
3.328,0.04,,
3.329,0.04,,
3.33,0.03,,
3.331,0.03,,
3.332,0.03,,
3.333,0.02,,
3.334,0.04,,
3.335,0.05,,
3.336,0.02,,
3.337,0.02,,
3.338,-0.01,,
3.339,0,,
3.34,-0.06,,
3.341,-0.08,,
3.342,-0.1,,
3.343,-0.11,,
3.344,-0.1,,
3.345,-0.08,,
3.346,-0.06,,
3.347,-0.01,,
3.348,0,,
3.349,0.02,,
3.35,0.02,,
3.351,0,,
3.352,0.02,,
3.353,-0.01,,
3.354,-0.01,,
3.355,-0.02,,
3.356,0,,
3.357,0.01,,
3.358,0.02,,
3.359,0.06,,
3.36,0.05,,
3.361,0.02,,
3.362,0.02,,
3.363,0,,
3.364,-0.01,,
3.365,-0.01,,
3.366,-0.01,,
3.367,0,,
3.368,0,,
3.369,0.02,,
3.37,0.01,,
3.371,0.01,,
3.372,0.03,,
3.373,0.03,,
3.374,0.01,,
3.375,0.03,,
3.376,0.05,,
3.377,0.03,,
3.378,0.03,,
3.379,0.01,,
3.38,-0.01,,
3.381,-0.06,,
3.382,-0.1,,
3.383,-0.1,,
3.384,-0.11,,
3.385,-0.09,,
3.386,-0.06,,
3.387,-0.04,,
3.388,0,,
3.389,0.01,,
3.39,0.01,,
3.391,0.02,,
3.392,0.01,,
3.393,0.03,,
3.394,0.03,,
3.395,0.02,,
3.396,0.04,,
3.397,0.05,,
3.398,0.07,,
3.399,0.07,,
3.4,0.04,,
3.401,0,,
3.402,0,,
3.403,-0.08,,
3.404,-0.1,,
3.405,-0.08,,
3.406,-0.1,,
3.407,-0.06,,
3.408,-0.03,,
3.409,0,,
3.41,0,,
3.411,0.02,,
3.412,0.03,,
3.413,0.05,,
3.414,0.04,,
3.415,0.03,,
3.416,0.02,,
3.417,0.02,,
3.418,0,,
3.419,-0.03,,
3.42,-0.03,,
3.421,-0.03,,
3.422,-0.05,,
3.423,-0.08,,
3.424,-0.09,,
3.425,-0.09,,
3.426,-0.09,,
3.427,-0.08,,
3.428,-0.03,,
3.429,-0.01,,
3.43,0.03,,
3.431,0,,
3.432,0.03,,
3.433,0.01,,
3.434,0.05,,
3.435,0.05,,
3.436,0.05,,
3.437,0.06,,
3.438,0.07,,
3.439,0.06,,
3.44,0.03,,
3.441,-0.01,,
3.442,-0.02,,
3.443,-0.06,,
3.444,-0.11,,
3.445,-0.1,,
3.446,-0.1,,
3.447,-0.09,,
3.448,-0.07,,
3.449,-0.01,,
3.45,0.03,,
3.451,0.04,,
3.452,0.07,,
3.453,0.08,,
3.454,0.1,,
3.455,0.08,,
3.456,0.1,,
3.457,0.11,,
3.458,0.1,,
3.459,0.11,,
3.46,0.07,,
3.461,0.05,,
3.462,0.03,,
3.463,-0.02,,
3.464,-0.03,,
3.465,-0.05,,
3.466,-0.04,,
3.467,-0.05,,
3.468,-0.05,,
3.469,-0.03,,
3.47,0.02,,
3.471,0.06,,
3.472,0.06,,
3.473,0.06,,
3.474,0.07,,
3.475,0.05,,
3.476,0.03,,
3.477,0.04,,
3.478,0.09,,
3.479,0.08,,
3.48,0.1,,
3.481,0.07,,
3.482,0.02,,
3.483,0,,
3.484,-0.07,,
3.485,-0.11,,
3.486,-0.1,,
3.487,-0.1,,
3.488,-0.03,,
3.489,-0.05,,
3.49,0,,
3.491,0,,
3.492,0.03,,
3.493,0.03,,
3.494,0.07,,
3.495,0.07,,
3.496,0.04,,
3.497,0.06,,
3.498,0.06,,
3.499,0.05,,
3.5,0.06,,
3.501,0.08,,
3.502,0.01,,
3.503,0,,
3.504,-0.03,,
3.505,-0.04,,
3.506,-0.08,,
3.507,-0.05,,
3.508,-0.05,,
3.509,-0.05,,
3.51,-0.01,,
3.511,0,,
3.512,0.05,,
3.513,0.07,,
3.514,0.08,,
3.515,0.07,,
3.516,0.08,,
3.517,0.04,,
3.518,0.02,,
3.519,0.01,,
3.52,0.01,,
3.521,0,,
3.522,0.01,,
3.523,0.01,,
3.524,-0.01,,
3.525,-0.06,,
3.526,-0.09,,
3.527,-0.09,,
3.528,-0.08,,
3.529,-0.02,,
3.53,-0.01,,
3.531,-0.01,,
3.532,0.01,,
3.533,0.08,,
3.534,0.07,,
3.535,0.06,,
3.536,0.05,,
3.537,0.06,,
3.538,0.08,,
3.539,0.06,,
3.54,0.04,,
3.541,0.01,,
3.542,0.02,,
3.543,0,,
3.544,-0.03,,
3.545,-0.08,,
3.546,-0.09,,
3.547,-0.05,,
3.548,-0.04,,
3.549,0,,
3.55,0.01,,
3.551,0.01,,
3.552,-0.01,,
3.553,0.01,,
3.554,0.02,,
3.555,0.05,,
3.556,0.05,,
3.557,0.03,,
3.558,0.04,,
3.559,0.04,,
3.56,0.03,,
3.561,0.04,,
3.562,0.03,,
3.563,0.04,,
3.564,0.02,,
3.565,-0.02,,
3.566,-0.06,,
3.567,-0.09,,
3.568,-0.07,,
3.569,-0.09,,
3.57,-0.06,,
3.571,-0.03,,
3.572,-0.02,,
3.573,0.03,,
3.574,0.03,,
3.575,0.05,,
3.576,0.08,,
3.577,0.1,,
3.578,0.06,,
3.579,0.01,,
3.58,0.04,,
3.581,0.04,,
3.582,0.06,,
3.583,0.04,,
3.584,0.02,,
3.585,-0.04,,
3.586,-0.06,,
3.587,-0.09,,
3.588,-0.07,,
3.589,-0.07,,
3.59,-0.07,,
3.591,-0.03,,
3.592,0.01,,
3.593,0,,
3.594,0.02,,
3.595,0.02,,
3.596,0,,
3.597,0.02,,
3.598,0.04,,
3.599,0.01,,
3.6,0.03,,
3.601,0.05,,
3.602,0.06,,
3.603,0.05,,
3.604,0.06,,
3.605,0,,
3.606,-0.03,,
3.607,-0.08,,
3.608,-0.05,,
3.609,-0.05,,
3.61,-0.04,,
3.611,-0.05,,
3.612,-0.03,,
3.613,0,,
3.614,0.04,,
3.615,0.05,,
3.616,0.02,,
3.617,0.04,,
3.618,0.02,,
3.619,0.03,,
3.62,0.02,,
3.621,0.02,,
3.622,0.03,,
3.623,0.02,,
3.624,0.02,,
3.625,0.02,,
3.626,-0.03,,
3.627,-0.04,,
3.628,-0.06,,
3.629,-0.07,,
3.63,-0.08,,
3.631,-0.08,,
3.632,-0.07,,
3.633,-0.03,,
3.634,0,,
3.635,0.03,,
3.636,0.04,,
3.637,0.07,,
3.638,0.06,,
3.639,0.02,,
3.64,0.02,,
3.641,0.04,,
3.642,0.04,,
3.643,0,,
3.644,0.02,,
3.645,0.01,,
3.646,-0.01,,
3.647,0,,
3.648,-0.04,,
3.649,-0.07,,
3.65,-0.05,,
3.651,-0.02,,
3.652,-0.04,,
3.653,-0.01,,
3.654,0,,
3.655,0.04,,
3.656,0.05,,
3.657,0.02,,
3.658,0,,
3.659,0.03,,
3.66,0.01,,
3.661,0.01,,
3.662,0.05,,
3.663,0.05,,
3.664,0.03,,
3.665,0.01,,
3.666,0,,
3.667,-0.01,,
3.668,-0.06,,
3.669,-0.08,,
3.67,-0.1,,
3.671,-0.1,,
3.672,-0.08,,
3.673,-0.05,,
3.674,-0.01,,
3.675,0.02,,
3.676,0.07,,
3.677,0.09,,
3.678,0.02,,
3.679,0,,
3.68,0.01,,
3.681,0.01,,
3.682,0.05,,
3.683,0.05,,
3.684,0.05,,
3.685,0.05,,
3.686,0.02,,
3.687,-0.01,,
3.688,-0.04,,
3.689,-0.07,,
3.69,-0.08,,
3.691,-0.06,,
3.692,-0.06,,
3.693,-0.07,,
3.694,-0.06,,
3.695,-0.02,,
3.696,0.01,,
3.697,0.01,,
3.698,0.04,,
3.699,0.06,,
3.7,0.05,,
3.701,0.06,,
3.702,0.06,,
3.703,0.07,,
3.704,0.04,,
3.705,0.04,,
3.706,0,,
3.707,-0.01,,
3.708,-0.03,,
3.709,-0.07,,
3.71,-0.06,,
3.711,-0.08,,
3.712,-0.09,,
3.713,-0.05,,
3.714,-0.03,,
3.715,0,,
3.716,0.01,,
3.717,0.05,,
3.718,0.05,,
3.719,0.01,,
3.72,0.02,,
3.721,0.03,,
3.722,0.05,,
3.723,0.05,,
3.724,0.09,,
3.725,0.07,,
3.726,0.04,,
3.727,0.01,,
3.728,-0.03,,
3.729,-0.05,,
3.73,-0.05,,
3.731,-0.06,,
3.732,-0.05,,
3.733,-0.09,,
3.734,-0.1,,
3.735,-0.05,,
3.736,-0.02,,
3.737,0,,
3.738,0.01,,
3.739,0,,
3.74,0.03,,
3.741,0.04,,
3.742,0.03,,
3.743,0.03,,
3.744,0.04,,
3.745,0.04,,
3.746,0.04,,
3.747,0.04,,
3.748,0.01,,
3.749,0.01,,
3.75,-0.03,,
3.751,-0.06,,
3.752,-0.09,,
3.753,-0.08,,
3.754,-0.06,,
3.755,-0.03,,
3.756,-0.04,,
3.757,0,,
3.758,0.01,,
3.759,0.02,,
3.76,0.03,,
3.761,0.07,,
3.762,0.04,,
3.763,0.03,,
3.764,0.04,,
3.765,0.05,,
3.766,0.06,,
3.767,0.05,,
3.768,0.02,,
3.769,-0.01,,
3.77,-0.03,,
3.771,-0.08,,
3.772,-0.09,,
3.773,-0.1,,
3.774,-0.06,,
3.775,-0.02,,
3.776,0.03,,
3.777,0,,
3.778,0.02,,
3.779,0.02,,
3.78,0.02,,
3.781,0.01,,
3.782,0.02,,
3.783,0.03,,
3.784,0.03,,
3.785,0.03,,
3.786,0.06,,
3.787,0.03,,
3.788,0.01,,
3.789,0,,
3.79,-0.03,,
3.791,-0.05,,
3.792,-0.07,,
3.793,-0.07,,
3.794,-0.06,,
3.795,-0.07,,
3.796,-0.02,,
3.797,-0.01,,
3.798,0.01,,
3.799,0.03,,
3.8,0.05,,
3.801,0.03,,
3.802,0.04,,
3.803,0.03,,
3.804,0.03,,
3.805,0.05,,
3.806,0.05,,
3.807,0.06,,
3.808,0.04,,
3.809,0.04,,
3.81,0.02,,
3.811,-0.06,,
3.812,-0.08,,
3.813,-0.09,,
3.814,-0.07,,
3.815,-0.06,,
3.816,-0.06,,
3.817,-0.01,,
3.818,-0.02,,
3.819,-0.01,,
3.82,0.02,,
3.821,0.04,,
3.822,0.04,,
3.823,0.03,,
3.824,0.03,,
3.825,0.06,,
3.826,0.04,,
3.827,0.02,,
3.828,0.04,,
3.829,0.02,,
3.83,0,,
3.831,0,,
3.832,-0.03,,
3.833,-0.06,,
3.834,-0.07,,
3.835,-0.07,,
3.836,-0.09,,
3.837,-0.06,,
3.838,0,,
3.839,0.02,,
3.84,0.01,,
3.841,0.03,,
3.842,0.02,,
3.843,0.03,,
3.844,0.04,,
3.845,0.03,,
3.846,0.02,,
3.847,0.02,,
3.848,0.04,,
3.849,0.04,,
3.85,0.02,,
3.851,-0.02,,
3.852,-0.04,,
3.853,-0.02,,
3.854,-0.06,,
3.855,-0.05,,
3.856,-0.06,,
3.857,-0.05,,
3.858,-0.07,,
3.859,-0.06,,
3.86,-0.02,,
3.861,0.03,,
3.862,0.05,,
3.863,0.07,,
3.864,0.08,,
3.865,0.08,,
3.866,0.05,,
3.867,0,,
3.868,0.03,,
3.869,0.04,,
3.87,0.01,,
3.871,0,,
3.872,-0.05,,
3.873,-0.09,,
3.874,-0.1,,
3.875,-0.1,,
3.876,-0.11,,
3.877,-0.07,,
3.878,-0.04,,
3.879,-0.04,,
3.88,0.02,,
3.881,0.03,,
3.882,0.05,,
3.883,0.07,,
3.884,0.05,,
3.885,0.01,,
3.886,0.03,,
3.887,0.03,,
3.888,0.05,,
3.889,0.05,,
3.89,0.02,,
3.891,-0.01,,
3.892,-0.05,,
3.893,-0.06,,
3.894,-0.06,,
3.895,-0.08,,
3.896,-0.08,,
3.897,-0.08,,
3.898,-0.07,,
3.899,-0.04,,
3.9,-0.01,,
3.901,0.02,,
3.902,0.08,,
3.903,0.09,,
3.904,0.09,,
3.905,0.07,,
3.906,0.05,,
3.907,0.01,,
3.908,0.02,,
3.909,0,,
3.91,0.01,,
3.911,0,,
3.912,-0.03,,
3.913,-0.04,,
3.914,-0.08,,
3.915,-0.06,,
3.916,-0.08,,
3.917,-0.09,,
3.918,-0.08,,
3.919,-0.04,,
3.92,-0.03,,
3.921,0,,
3.922,0.05,,
3.923,0.03,,
3.924,0.03,,
3.925,0.03,,
3.926,0.04,,
3.927,0.03,,
3.928,0.07,,
3.929,0.07,,
3.93,0.06,,
3.931,0.02,,
3.932,0.03,,
3.933,-0.02,,
3.934,-0.03,,
3.935,-0.09,,
3.936,-0.06,,
3.937,-0.09,,
3.938,-0.07,,
3.939,-0.05,,
3.94,-0.01,,
3.941,0.01,,
3.942,0.02,,
3.943,0.04,,
3.944,0.06,,
3.945,0.04,,
3.946,0.05,,
3.947,0.06,,
3.948,0.07,,
3.949,0.08,,
3.95,0.06,,
3.951,0.04,,
3.952,0,,
3.953,0,,
3.954,-0.02,,
3.955,-0.05,,
3.956,-0.06,,
3.957,-0.11,,
3.958,-0.09,,
3.959,-0.07,,
3.96,-0.03,,
3.961,-0.03,,
3.962,0.02,,
3.963,0.05,,
3.964,0.02,,
3.965,-0.02,,
3.966,-0.01,,
3.967,0,,
3.968,0.06,,
3.969,0.07,,
3.97,0.09,,
3.971,0.1,,
3.972,0.06,,
3.973,0.01,,
3.974,0,,
3.975,-0.02,,
3.976,-0.06,,
3.977,-0.06,,
3.978,-0.03,,
3.979,-0.03,,
3.98,-0.01,,
3.981,-0.02,,
3.982,-0.01,,
3.983,0.05,,
3.984,0.04,,
3.985,0.09,,
3.986,0.08,,
3.987,0.01,,
3.988,-0.11,,
3.989,-0.08,,
3.99,-0.02,,
3.991,-0.02,,
3.992,0.02,,
3.993,0.09,,
3.994,0.1,,
3.995,0.04,,
3.996,-0.05,,
3.997,-0.03,,
3.998,0.03,,
3.999,-0.02,,
4,0,,
4.001,-0.04,,
4.002,-0.03,,
4.003,-0.06,,
4.004,-0.04,,
4.005,-0.02,,
4.006,0,,
4.007,0,,
4.008,-0.07,,
4.009,-0.17,,
4.01,-0.25,,
4.011,-0.39,,
4.012,-0.53,,
4.013,-0.61,,
4.014,-0.55,,
4.015,-0.39,,
4.016,-0.31,,
4.017,-0.25,,
4.018,-0.12,,
4.019,-0.05,,
4.02,-0.07,,
4.021,-0.1,,
4.022,-0.06,,
4.023,0.22,,
4.024,0.33,,
4.025,0.29,,
4.026,0.33,,
4.027,0.37,,
4.028,0.34,,
4.029,0.14,,
4.03,0.09,,
4.031,0.33,,
4.032,0.47,,
4.033,0.37,,
4.034,0.41,,
4.035,0.37,,
4.036,0.27,,
4.037,0.09,,
4.038,-0.11,,
4.039,-0.41,,
4.04,-0.7,,
4.041,-0.87,,
4.042,-0.78,,
4.043,-0.6,,
4.044,-0.4,,
4.045,-0.4,,
4.046,-0.46,,
4.047,-0.51,,
4.048,-0.36,,
4.049,-0.3,,
4.05,0,,
4.051,0.24,,
4.052,0.3,,
4.053,0.48,,
4.054,0.53,,
4.055,0.64,,
4.056,0.82,,
4.057,0.98,,
4.058,0.84,,
4.059,0.78,,
4.06,0.81,,
4.061,0.67,,
4.062,0.53,,
4.063,0.3,,
4.064,0.15,,
4.065,-0.04,,
4.066,-0.12,,
4.067,-0.34,,
4.068,-0.63,,
4.069,-0.67,,
4.07,-0.32,,
4.071,-0.18,,
4.072,-0.01,,
4.073,0.21,,
4.074,0.37,,
4.075,0.23,,
4.076,0.03,,
4.077,0.11,,
4.078,0.2,,
4.079,0.51,,
4.08,0.55,,
4.081,0.32,,
4.082,-0.1,,
4.083,-0.38,,
4.084,-0.44,,
4.085,-0.45,,
4.086,-0.46,,
4.087,-0.42,,
4.088,-0.23,,
4.089,0.05,,
4.09,0.27,,
4.091,0.22,,
4.092,0.11,,
4.093,0.12,,
4.094,0.19,,
4.095,0.06,,
4.096,-0.07,,
4.097,-0.03,,
4.098,-0.37,,
4.099,-0.66,,
4.1,-0.5,,
4.101,-0.37,,
4.102,-0.19,,
4.103,-0.12,,
4.104,-0.07,,
4.105,0.07,,
4.106,0.14,,
4.107,0.2,,
4.108,0.21,,
4.109,0.12,,
4.11,0.09,,
4.111,-0.06,,
4.112,-0.06,,
4.113,-0.02,,
4.114,-0.07,,
4.115,-0.08,,
4.116,-0.11,,
4.117,-0.13,,
4.118,0.08,,
4.119,-0.05,,
4.12,-0.23,,
4.121,-0.08,,
4.122,0.01,,
4.123,0.08,,
4.124,0.15,,
4.125,0.13,,
4.126,0.15,,
4.127,0.18,,
4.128,0.11,,
4.129,0.03,,
4.13,-0.04,,
4.131,-0.03,,
4.132,0,,
4.133,0.02,,
4.134,0.05,,
4.135,0.02,,
4.136,0.06,,
4.137,0.06,,
4.138,-0.05,,
4.139,-0.15,,
4.14,-0.13,,
4.141,-0.11,,
4.142,-0.13,,
4.143,-0.09,,
4.144,-0.06,,
4.145,-0.03,,
4.146,0,,
4.147,0.01,,
4.148,0.03,,
4.149,-0.01,,
4.15,-0.02,,
4.151,0,,
4.152,0.07,,
4.153,0.11,,
4.154,0.04,,
4.155,0.04,,
4.156,0.04,,
4.157,0.02,,
4.158,-0.01,,
4.159,-0.05,,
4.16,-0.11,,
4.161,-0.08,,
4.162,-0.11,,
4.163,-0.09,,
4.164,-0.09,,
4.165,-0.04,,
4.166,-0.06,,
4.167,-0.03,,
4.168,0,,
4.169,0.02,,
4.17,0.01,,
4.171,0.02,,
4.172,0.01,,
4.173,0,,
4.174,0.05,,
4.175,0.09,,
4.176,0.08,,
4.177,0.04,,
4.178,-0.06,,
4.179,-0.11,,
4.18,-0.12,,
4.181,-0.12,,
4.182,-0.15,,
4.183,-0.16,,
4.184,-0.13,,
4.185,-0.06,,
4.186,-0.01,,
4.187,0.03,,
4.188,0.02,,
4.189,0.03,,
4.19,0.04,,
4.191,0.05,,
4.192,0.06,,
4.193,0.09,,
4.194,0.07,,
4.195,0.07,,
4.196,-0.03,,
4.197,-0.06,,
4.198,-0.08,,
4.199,-0.1,,
4.2,-0.15,,
4.201,-0.18,,
4.202,-0.1,,
4.203,-0.09,,
4.204,-0.03,,
4.205,-0.03,,
4.206,-0.04,,
4.207,-0.02,,
4.208,0.01,,
4.209,0,,
4.21,-0.04,,
4.211,-0.04,,
4.212,0.03,,
4.213,0.05,,
4.214,0.03,,
4.215,0.04,,
4.216,0.02,,
4.217,-0.04,,
4.218,-0.06,,
4.219,-0.07,,
4.22,-0.11,,
4.221,-0.05,,
4.222,-0.02,,
4.223,0.01,,
4.224,-0.08,,
4.225,-0.05,,
4.226,-0.01,,
4.227,0,,
4.228,0.01,,
4.229,0.06,,
4.23,0.02,,
4.231,-0.03,,
4.232,-0.04,,
4.233,-0.01,,
4.234,-0.03,,
4.235,-0.02,,
4.236,0.04,,
4.237,0.07,,
4.238,0.11,,
4.239,0.11,,
4.24,0.03,,
4.241,-0.06,,
4.242,-0.09,,
4.243,-0.11,,
4.244,-0.11,,
4.245,-0.1,,
4.246,-0.06,,
4.247,-0.03,,
4.248,-0.01,,
4.249,0.02,,
4.25,0.01,,
4.251,0,,
4.252,0,,
4.253,-0.01,,
4.254,0.04,,
4.255,0.06,,
4.256,0.06,,
4.257,0.08,,
4.258,0.04,,
4.259,0.04,,
4.26,0,,
4.261,-0.03,,
4.262,-0.08,,
4.263,-0.08,,
4.264,-0.11,,
4.265,-0.1,,
4.266,-0.09,,
4.267,-0.06,,
4.268,-0.03,,
4.269,-0.01,,
4.27,-0.02,,
4.271,-0.01,,
4.272,-0.01,,
4.273,0,,
4.274,0,,
4.275,0.02,,
4.276,0.01,,
4.277,0.01,,
4.278,0.01,,
4.279,-0.01,,
4.28,0,,
4.281,-0.01,,
4.282,0,,
4.283,-0.05,,
4.284,-0.04,,
4.285,-0.02,,
4.286,0.02,,
4.287,0,,
4.288,0.04,,
4.289,0.03,,
4.29,0.02,,
4.291,0,,
4.292,0.01,,
4.293,0.01,,
4.294,0.03,,
4.295,0.04,,
4.296,0.02,,
4.297,0.02,,
4.298,0.02,,
4.299,0,,
4.3,0.03,,
4.301,0.01,,
4.302,0.05,,
4.303,-0.02,,
4.304,-0.02,,
4.305,-0.06,,
4.306,-0.06,,
4.307,-0.06,,
4.308,-0.05,,
4.309,-0.01,,
4.31,-0.02,,
4.311,0,,
4.312,0.01,,
4.313,0.03,,
4.314,0.01,,
4.315,0.01,,
4.316,0.04,,
4.317,0.03,,
4.318,0.03,,
4.319,0.02,,
4.32,0.03,,
4.321,0.01,,
4.322,-0.02,,
4.323,-0.07,,
4.324,-0.09,,
4.325,-0.11,,
4.326,-0.1,,
4.327,-0.09,,
4.328,-0.06,,
4.329,-0.03,,
4.33,-0.01,,
4.331,0.01,,
4.332,0.01,,
4.333,0.01,,
4.334,0,,
4.335,0,,
4.336,0.01,,
4.337,0.01,,
4.338,0.03,,
4.339,0.01,,
4.34,-0.01,,
4.341,-0.02,,
4.342,-0.02,,
4.343,-0.06,,
4.344,-0.09,,
4.345,-0.12,,
4.346,-0.11,,
4.347,-0.12,,
4.348,-0.08,,
4.349,-0.04,,
4.35,-0.02,,
4.351,0.01,,
4.352,0.03,,
4.353,0.05,,
4.354,0.07,,
4.355,0.05,,
4.356,0.07,,
4.357,0.05,,
4.358,0.04,,
4.359,0.05,,
4.36,0.05,,
4.361,0.03,,
4.362,0.03,,
4.363,-0.02,,
4.364,-0.05,,
4.365,-0.08,,
4.366,-0.08,,
4.367,-0.06,,
4.368,-0.05,,
4.369,-0.04,,
4.37,-0.01,,
4.371,0,,
4.372,0.01,,
4.373,0.03,,
4.374,0.02,,
4.375,0.01,,
4.376,0.04,,
4.377,0.04,,
4.378,0.1,,
4.379,0.14,,
4.38,0.13,,
4.381,0.13,,
4.382,0.11,,
4.383,0.07,,
4.384,0.02,,
4.385,-0.02,,
4.386,0,,
4.387,-0.04,,
4.388,-0.04,,
4.389,-0.05,,
4.39,-0.01,,
4.391,0.01,,
4.392,0.03,,
4.393,0.05,,
4.394,0.06,,
4.395,0.03,,
4.396,0.06,,
4.397,0.06,,
4.398,0.08,,
4.399,0.09,,
4.4,0.07,,
4.401,0.07,,
4.402,0.05,,
4.403,0.04,,
4.404,0,,
4.405,-0.03,,
4.406,-0.02,,
4.407,-0.06,,
4.408,-0.05,,
4.409,-0.03,,
4.41,-0.01,,
4.411,0.02,,
4.412,0.05,,
4.413,0.05,,
4.414,0.06,,
4.415,0.06,,
4.416,0.07,,
4.417,0.06,,
4.418,0.05,,
4.419,0.07,,
4.42,0.08,,
4.421,0.07,,
4.422,0.07,,
4.423,0.06,,
4.424,0.04,,
4.425,0.02,,
4.426,-0.03,,
4.427,-0.04,,
4.428,-0.06,,
4.429,-0.02,,
4.43,-0.02,,
4.431,0.01,,
4.432,0,,
4.433,0.03,,
4.434,0.05,,
4.435,0.06,,
4.436,0.03,,
4.437,0.04,,
4.438,0.04,,
4.439,0.05,,
4.44,0.05,,
4.441,0.06,,
4.442,0.06,,
4.443,0.04,,
4.444,0.01,,
4.445,-0.02,,
4.446,-0.02,,
4.447,-0.08,,
4.448,-0.09,,
4.449,-0.09,,
4.45,-0.07,,
4.451,-0.06,,
4.452,-0.02,,
4.453,-0.01,,
4.454,0.03,,
4.455,0.03,,
4.456,0.03,,
4.457,0.02,,
4.458,0.05,,
4.459,0.05,,
4.46,0.06,,
4.461,0.06,,
4.462,0.07,,
4.463,0.05,,
4.464,0.03,,
4.465,0.02,,
4.466,-0.01,,
4.467,-0.05,,
4.468,-0.08,,
4.469,-0.09,,
4.47,-0.06,,
4.471,-0.02,,
4.472,-0.01,,
4.473,0.01,,
4.474,0.02,,
4.475,0.02,,
4.476,0.05,,
4.477,0.01,,
4.478,0.03,,
4.479,0.06,,
4.48,0.05,,
4.481,0.06,,
4.482,0.05,,
4.483,0.04,,
4.484,0.03,,
4.485,0,,
4.486,0,,
4.487,-0.07,,
4.488,-0.08,,
4.489,-0.09,,
4.49,-0.11,,
4.491,-0.1,,
4.492,-0.08,,
4.493,-0.03,,
4.494,-0.01,,
4.495,0.01,,
4.496,0.04,,
4.497,0.06,,
4.498,0.06,,
4.499,0.06,,
4.5,0.07,,
4.501,0.04,,
4.502,0.04,,
4.503,0.04,,
4.504,0.06,,
4.505,0,,
4.506,-0.02,,
4.507,-0.05,,
4.508,-0.07,,
4.509,-0.07,,
4.51,-0.07,,
4.511,-0.06,,
4.512,-0.04,,
4.513,0,,
4.514,0,,
4.515,0.02,,
4.516,0.05,,
4.517,0.04,,
4.518,0.05,,
4.519,0.04,,
4.52,0.04,,
4.521,0.04,,
4.522,0.05,,
4.523,0.06,,
4.524,0.08,,
4.525,0.03,,
4.526,0,,
4.527,-0.02,,
4.528,-0.06,,
4.529,-0.05,,
4.53,-0.07,,
4.531,-0.06,,
4.532,-0.05,,
4.533,-0.03,,
4.534,0,,
4.535,-0.01,,
4.536,0.01,,
4.537,0.05,,
4.538,0.06,,
4.539,0.08,,
4.54,0.08,,
4.541,0.07,,
4.542,0.07,,
4.543,0.07,,
4.544,0.07,,
4.545,0.04,,
4.546,0.02,,
4.547,0,,
4.548,0,,
4.549,-0.05,,
4.55,-0.07,,
4.551,-0.07,,
4.552,-0.07,,
4.553,-0.04,,
4.554,0.01,,
4.555,0.02,,
4.556,0.04,,
4.557,0.07,,
4.558,0.05,,
4.559,0.05,,
4.56,0.04,,
4.561,0.04,,
4.562,0.07,,
4.563,0.09,,
4.564,0.09,,
4.565,0.09,,
4.566,0.03,,
4.567,0,,
4.568,-0.03,,
4.569,-0.05,,
4.57,-0.06,,
4.571,-0.06,,
4.572,-0.06,,
4.573,-0.03,,
4.574,-0.02,,
4.575,0,,
4.576,0.05,,
4.577,0.06,,
4.578,0.04,,
4.579,0.04,,
4.58,0.05,,
4.581,0.06,,
4.582,0.04,,
4.583,0.07,,
4.584,0.06,,
4.585,0.07,,
4.586,0.05,,
4.587,0.01,,
4.588,-0.01,,
4.589,-0.05,,
4.59,-0.08,,
4.591,-0.09,,
4.592,-0.07,,
4.593,-0.05,,
4.594,-0.02,,
4.595,0.01,,
4.596,0.03,,
4.597,0.06,,
4.598,0.06,,
4.599,0.04,,
4.6,0.05,,
4.601,0.05,,
4.602,0.05,,
4.603,0.04,,
4.604,0.05,,
4.605,0.06,,
4.606,0.05,,
4.607,0.03,,
4.608,0,,
4.609,-0.01,,
4.61,-0.05,,
4.611,-0.04,,
4.612,-0.08,,
4.613,-0.07,,
4.614,-0.05,,
4.615,-0.01,,
4.616,-0.02,,
4.617,0.01,,
4.618,0.03,,
4.619,0,,
4.62,0.07,,
4.621,0.08,,
4.622,0.05,,
4.623,0.06,,
4.624,0.06,,
4.625,0.06,,
4.626,0.04,,
4.627,0.02,,
4.628,-0.01,,
4.629,-0.02,,
4.63,-0.05,,
4.631,-0.04,,
4.632,-0.05,,
4.633,-0.07,,
4.634,-0.03,,
4.635,-0.01,,
4.636,-0.02,,
4.637,0.03,,
4.638,0.06,,
4.639,0.06,,
4.64,0.06,,
4.641,0.03,,
4.642,0.05,,
4.643,0.04,,
4.644,0.04,,
4.645,0.06,,
4.646,0.06,,
4.647,0.04,,
4.648,0.03,,
4.649,0,,
4.65,-0.02,,
4.651,-0.06,,
4.652,-0.1,,
4.653,-0.1,,
4.654,-0.09,,
4.655,-0.09,,
4.656,-0.03,,
4.657,-0.03,,
4.658,-0.02,,
4.659,0.01,,
4.66,0.02,,
4.661,0.03,,
4.662,0.07,,
4.663,0.08,,
4.664,0.11,,
4.665,0.16,,
4.666,0.13,,
4.667,0.14,,
4.668,0.11,,
4.669,0.08,,
4.67,0.04,,
4.671,0,,
4.672,-0.07,,
4.673,-0.07,,
4.674,-0.06,,
4.675,-0.08,,
4.676,-0.05,,
4.677,-0.01,,
4.678,0.04,,
4.679,0.05,,
4.68,0.07,,
4.681,0.08,,
4.682,0.08,,
4.683,0.03,,
4.684,0.03,,
4.685,0.04,,
4.686,0.08,,
4.687,0.05,,
4.688,0.04,,
4.689,0.02,,
4.69,0,,
4.691,-0.03,,
4.692,-0.08,,
4.693,-0.09,,
4.694,-0.09,,
4.695,-0.07,,
4.696,-0.07,,
4.697,-0.05,,
4.698,-0.02,,
4.699,-0.01,,
4.7,0.01,,
4.701,0.04,,
4.702,0.06,,
4.703,0.01,,
4.704,0.02,,
4.705,0.01,,
4.706,0.04,,
4.707,0.04,,
4.708,0.02,,
4.709,0,,
4.71,-0.02,,
4.711,0,,
4.712,-0.05,,
4.713,-0.07,,
4.714,-0.06,,
4.715,-0.09,,
4.716,-0.09,,
4.717,-0.07,,
4.718,-0.06,,
4.719,-0.02,,
4.72,0.01,,
4.721,0.04,,
4.722,0.06,,
4.723,0.05,,
4.724,0.05,,
4.725,0.03,,
4.726,0.04,,
4.727,0.04,,
4.728,0.03,,
4.729,0.04,,
4.73,0,,
4.731,-0.01,,
4.732,-0.03,,
4.733,-0.04,,
4.734,-0.09,,
4.735,-0.07,,
4.736,-0.09,,
4.737,-0.06,,
4.738,-0.04,,
4.739,-0.02,,
4.74,0.01,,
4.741,0.02,,
4.742,0.04,,
4.743,0.05,,
4.744,0.04,,
4.745,0.04,,
4.746,0.05,,
4.747,0.05,,
4.748,0.05,,
4.749,0.05,,
4.75,0.02,,
4.751,0,,
4.752,-0.02,,
4.753,-0.03,,
4.754,-0.08,,
4.755,-0.08,,
4.756,-0.07,,
4.757,-0.05,,
4.758,-0.03,,
4.759,-0.01,,
4.76,0,,
4.761,0.01,,
4.762,0.04,,
4.763,0.03,,
4.764,0.03,,
4.765,0.04,,
4.766,0.04,,
4.767,0.04,,
4.768,0.06,,
4.769,0.03,,
4.77,0.03,,
4.771,-0.01,,
4.772,-0.02,,
4.773,-0.04,,
4.774,-0.08,,
4.775,-0.07,,
4.776,-0.08,,
4.777,-0.07,,
4.778,-0.07,,
4.779,-0.03,,
4.78,-0.02,,
4.781,0.02,,
4.782,0.03,,
4.783,0.04,,
4.784,0.07,,
4.785,0.06,,
4.786,0.05,,
4.787,0.05,,
4.788,0.05,,
4.789,0.03,,
4.79,0.04,,
4.791,0.03,,
4.792,0,,
4.793,-0.04,,
4.794,-0.04,,
4.795,-0.07,,
4.796,-0.06,,
4.797,-0.1,,
4.798,-0.08,,
4.799,-0.07,,
4.8,-0.05,,
4.801,-0.03,,
4.802,0.01,,
4.803,0.04,,
4.804,0.03,,
4.805,0.04,,
4.806,0.06,,
4.807,0.06,,
4.808,0.05,,
4.809,0.02,,
4.81,0.02,,
4.811,0.02,,
4.812,0.02,,
4.813,-0.04,,
4.814,-0.06,,
4.815,-0.07,,
4.816,-0.09,,
4.817,-0.09,,
4.818,-0.09,,
4.819,-0.08,,
4.82,-0.05,,
4.821,-0.01,,
4.822,0,,
4.823,0.02,,
4.824,0.01,,
4.825,0.03,,
4.826,0.03,,
4.827,0.04,,
4.828,0.05,,
4.829,0.04,,
4.83,0.04,,
4.831,0.05,,
4.832,0.02,,
4.833,0,,
4.834,-0.02,,
4.835,-0.03,,
4.836,-0.07,,
4.837,-0.07,,
4.838,-0.06,,
4.839,-0.07,,
4.84,-0.03,,
4.841,-0.03,,
4.842,0.01,,
4.843,0.02,,
4.844,0.05,,
4.845,0.03,,
4.846,0.05,,
4.847,0.05,,
4.848,0.04,,
4.849,0.04,,
4.85,0.03,,
4.851,0.03,,
4.852,0.01,,
4.853,0.02,,
4.854,-0.01,,
4.855,-0.03,,
4.856,-0.06,,
4.857,-0.07,,
4.858,-0.06,,
4.859,-0.06,,
4.86,-0.05,,
4.861,-0.04,,
4.862,-0.01,,
4.863,0.01,,
4.864,0.02,,
4.865,0.06,,
4.866,0.04,,
4.867,0.05,,
4.868,0.05,,
4.869,0.04,,
4.87,0.04,,
4.871,0.04,,
4.872,0.05,,
4.873,0.02,,
4.874,0,,
4.875,0.02,,
4.876,-0.03,,
4.877,-0.05,,
4.878,-0.06,,
4.879,-0.08,,
4.88,-0.07,,
4.881,-0.05,,
4.882,-0.02,,
4.883,-0.01,,
4.884,0.02,,
4.885,0.05,,
4.886,0.04,,
4.887,0.03,,
4.888,0.05,,
4.889,0.04,,
4.89,0.05,,
4.891,0.03,,
4.892,0.05,,
4.893,0.05,,
4.894,0.02,,
4.895,-0.01,,
4.896,-0.03,,
4.897,-0.06,,
4.898,-0.08,,
4.899,-0.07,,
4.9,-0.06,,
4.901,-0.05,,
4.902,-0.04,,
4.903,0.01,,
4.904,0,,
4.905,0.03,,
4.906,0.04,,
4.907,0.06,,
4.908,0.03,,
4.909,0.04,,
4.91,0.07,,
4.911,0.07,,
4.912,0.04,,
4.913,0.02,,
4.914,0.02,,
4.915,0,,
4.916,-0.02,,
4.917,-0.04,,
4.918,-0.06,,
4.919,-0.08,,
4.92,-0.07,,
4.921,-0.06,,
4.922,-0.04,,
4.923,-0.01,,
4.924,0,,
4.925,0.01,,
4.926,0.03,,
4.927,0.04,,
4.928,0.03,,
4.929,0.04,,
4.93,0.06,,
4.931,0.04,,
4.932,0.02,,
4.933,0.01,,
4.934,0.01,,
4.935,0,,
4.936,-0.02,,
4.937,-0.03,,
4.938,-0.05,,
4.939,-0.05,,
4.94,-0.06,,
4.941,-0.07,,
4.942,-0.06,,
4.943,-0.05,,
4.944,-0.02,,
4.945,0,,
4.946,0.02,,
4.947,0.02,,
4.948,0.03,,
4.949,0.03,,
4.95,0.04,,
4.951,0.03,,
4.952,0.01,,
4.953,0.03,,
4.954,0.01,,
4.955,0,,
4.956,-0.01,,
4.957,-0.01,,
4.958,-0.05,,
4.959,-0.07,,
4.96,-0.08,,
4.961,-0.04,,
4.962,-0.07,,
4.963,-0.05,,
4.964,-0.03,,
4.965,0,,
4.966,0.04,,
4.967,0.02,,
4.968,0.06,,
4.969,0.04,,
4.97,0.05,,
4.971,0.05,,
4.972,0.04,,
4.973,0.04,,
4.974,0.03,,
4.975,0,,
4.976,0.02,,
4.977,0,,
4.978,-0.02,,
4.979,-0.04,,
4.98,-0.06,,
4.981,-0.05,,
4.982,-0.07,,
4.983,-0.06,,
4.984,-0.04,,
4.985,-0.02,,
4.986,0.02,,
4.987,0.05,,
4.988,0.04,,
4.989,0.06,,
4.99,0.07,,
4.991,0.05,,
4.992,0.05,,
4.993,0.04,,
4.994,0.03,,
4.995,0.06,,
4.996,0.02,,
4.997,0,,
4.998,-0.01,,
4.999,-0.05,,
5,-0.04,,
5.001,-0.02,,
5.002,-0.06,,
5.003,-0.07,,
5.004,-0.03,,
5.005,-0.04,,
5.006,-0.01,,
5.007,0.01,,
5.008,0.06,,
5.009,0.07,,
5.01,0.06,,
5.011,0.06,,
5.012,0.06,,
5.013,0.08,,
5.014,0.06,,
5.015,0.02,,
5.016,0.01,,
5.017,-0.01,,
5.018,-0.02,,
5.019,-0.02,,
5.02,-0.05,,
5.021,-0.07,,
5.022,-0.08,,
5.023,-0.07,,
5.024,-0.06,,
5.025,-0.02,,
5.026,-0.01,,
5.027,0,,
5.028,0.05,,
5.029,0.07,,
5.03,0.06,,
5.031,0.06,,
5.032,0.05,,
5.033,0.05,,
5.034,0.05,,
5.035,0.02,,
5.036,0.01,,
5.037,0.01,,
5.038,-0.01,,
5.039,-0.03,,
5.04,-0.04,,
5.041,-0.06,,
5.042,-0.05,,
5.043,-0.06,,
5.044,-0.08,,
5.045,-0.02,,
5.046,-0.02,,
5.047,-0.01,,
5.048,0.03,,
5.049,0.03,,
5.05,0.06,,
5.051,0.06,,
5.052,0.05,,
5.053,0.03,,
5.054,0.04,,
5.055,0.01,,
5.056,0.02,,
5.057,0,,
5.058,0.01,,
5.059,0,,
5.06,0.01,,
5.061,-0.05,,
5.062,-0.06,,
5.063,-0.07,,
5.064,-0.07,,
5.065,-0.04,,
5.066,-0.04,,
5.067,0,,
5.068,0.01,,
5.069,0.06,,
5.07,0.03,,
5.071,0.04,,
5.072,0.05,,
5.073,0.05,,
5.074,0.05,,
5.075,0.04,,
5.076,0.03,,
5.077,0.01,,
5.078,0.02,,
5.079,0,,
5.08,-0.01,,
5.081,-0.02,,
5.082,-0.05,,
5.083,-0.03,,
5.084,-0.04,,
5.085,-0.07,,
5.086,-0.03,,
5.087,-0.03,,
5.088,0,,
5.089,0.06,,
5.09,0.04,,
5.091,0.07,,
5.092,0.06,,
5.093,0.07,,
5.094,0.06,,
5.095,0.07,,
5.096,0.04,,
5.097,0.04,,
5.098,0,,
5.099,0.01,,
5.1,-0.02,,
5.101,-0.02,,
5.102,-0.04,,
5.103,-0.05,,
5.104,-0.05,,
5.105,-0.04,,
5.106,-0.01,,
5.107,-0.02,,
5.108,0.02,,
5.109,0.02,,
5.11,0.03,,
5.111,0.05,,
5.112,0.07,,
5.113,0.05,,
5.114,0.06,,
5.115,0.04,,
5.116,0.03,,
5.117,0.02,,
5.118,0.02,,
5.119,0.02,,
5.12,0,,
5.121,0,,
5.122,-0.04,,
5.123,-0.06,,
5.124,-0.06,,
5.125,-0.05,,
5.126,-0.02,,
5.127,-0.02,,
5.128,-0.01,,
5.129,0,,
5.13,0.02,,
5.131,0.04,,
5.132,0.04,,
5.133,0.05,,
5.134,0.06,,
5.135,0.03,,
5.136,0.07,,
5.137,0.03,,
5.138,0.02,,
5.139,0.01,,
5.14,0,,
5.141,0,,
5.142,-0.03,,
5.143,-0.05,,
5.144,-0.06,,
5.145,-0.07,,
5.146,-0.06,,
5.147,-0.05,,
5.148,-0.03,,
5.149,0,,
5.15,0.01,,
5.151,0.01,,
5.152,0.02,,
5.153,0.03,,
5.154,0.05,,
5.155,0.03,,
5.156,0.03,,
5.157,0.03,,
5.158,0.06,,
5.159,0.06,,
5.16,0.05,,
5.161,0.01,,
5.162,0,,
5.163,-0.03,,
5.164,-0.04,,
5.165,-0.07,,
5.166,-0.07,,
5.167,-0.08,,
5.168,-0.05,,
5.169,-0.04,,
5.17,0,,
5.171,0.01,,
5.172,0.04,,
5.173,0.05,,
5.174,0.04,,
5.175,0.03,,
5.176,0.03,,
5.177,0.02,,
5.178,0.02,,
5.179,-0.01,,
5.18,-0.01,,
5.181,-0.01,,
5.182,0,,
5.183,0.01,,
5.184,0.01,,
5.185,-0.02,,
5.186,-0.02,,
5.187,-0.03,,
5.188,-0.04,,
5.189,-0.03,,
5.19,-0.01,,
5.191,0.03,,
5.192,0.01,,
5.193,0.04,,
5.194,0.05,,
5.195,0.05,,
5.196,0.05,,
5.197,0.04,,
5.198,0.03,,
5.199,0.01,,
5.2,0,,
5.201,0,,
5.202,-0.02,,
5.203,-0.02,,
5.204,-0.03,,
5.205,-0.03,,
5.206,-0.06,,
5.207,-0.06,,
5.208,-0.06,,
5.209,-0.02,,
5.21,-0.03,,
5.211,0.01,,
5.212,0.05,,
5.213,0.05,,
5.214,0.07,,
5.215,0.06,,
5.216,0.06,,
5.217,0.07,,
5.218,0.05,,
5.219,0.04,,
5.22,0.02,,
5.221,0.02,,
5.222,0,,
5.223,0.01,,
5.224,-0.03,,
5.225,-0.02,,
5.226,-0.07,,
5.227,-0.06,,
5.228,-0.06,,
5.229,-0.05,,
5.23,-0.03,,
5.231,0,,
5.232,0.01,,
5.233,0.03,,
5.234,0.04,,
5.235,0.05,,
5.236,0.06,,
5.237,0.06,,
5.238,0.04,,
5.239,0.06,,
5.24,0.02,,
5.241,0.02,,
5.242,0,,
5.243,-0.01,,
5.244,-0.02,,
5.245,-0.03,,
5.246,-0.05,,
5.247,-0.07,,
5.248,-0.06,,
5.249,-0.04,,
5.25,-0.04,,
5.251,-0.03,,
5.252,-0.01,,
5.253,0.04,,
5.254,0.04,,
5.255,0.05,,
5.256,0.07,,
5.257,0.07,,
5.258,0.07,,
5.259,0.04,,
5.26,0.05,,
5.261,0.06,,
5.262,0.08,,
5.263,0.08,,
5.264,0.05,,
5.265,-0.01,,
5.266,-0.05,,
5.267,-0.07,,
5.268,-0.08,,
5.269,-0.07,,
5.27,-0.02,,
5.271,-0.02,,
5.272,0,,
5.273,0.04,,
5.274,0.04,,
5.275,0.04,,
5.276,0.07,,
5.277,0.04,,
5.278,0.04,,
5.279,0.04,,
5.28,0.06,,
5.281,0.01,,
5.282,0.01,,
5.283,0.01,,
5.284,0,,
5.285,-0.03,,
5.286,-0.01,,
5.287,-0.05,,
5.288,-0.05,,
5.289,-0.09,,
5.29,-0.06,,
5.291,0,,
5.292,0,,
5.293,0.03,,
5.294,-0.01,,
5.295,0,,
5.296,0.03,,
5.297,0.03,,
5.298,0.03,,
5.299,0.01,,
5.3,0.02,,
5.301,0.01,,
5.302,0,,
5.303,0,,
5.304,0,,
5.305,0.01,,
5.306,-0.04,,
5.307,-0.04,,
5.308,-0.05,,
5.309,-0.06,,
5.31,-0.06,,
5.311,-0.04,,
5.312,-0.01,,
5.313,0,,
5.314,0.05,,
5.315,0.05,,
5.316,0.05,,
5.317,0.06,,
5.318,0.04,,
5.319,0.09,,
5.32,0.05,,
5.321,0.05,,
5.322,0.04,,
5.323,0.02,,
5.324,0.01,,
5.325,0.01,,
5.326,-0.02,,
5.327,-0.01,,
5.328,-0.04,,
5.329,-0.05,,
5.33,-0.04,,
5.331,-0.02,,
5.332,-0.02,,
5.333,0,,
5.334,0.04,,
5.335,0.07,,
5.336,0.09,,
5.337,0.08,,
5.338,0.07,,
5.339,0.09,,
5.34,0.07,,
5.341,0.08,,
5.342,0.06,,
5.343,0.03,,
5.344,0.03,,
5.345,0.01,,
5.346,0.01,,
5.347,-0.02,,
5.348,-0.02,,
5.349,-0.04,,
5.35,-0.03,,
5.351,-0.02,,
5.352,0,,
5.353,-0.02,,
5.354,0.02,,
5.355,0.05,,
5.356,0.08,,
5.357,0.1,,
5.358,0.08,,
5.359,0.06,,
5.36,0.08,,
5.361,0.07,,
5.362,0.08,,
5.363,0.04,,
5.364,0.04,,
5.365,0.04,,
5.366,0.02,,
5.367,0,,
5.368,-0.05,,
5.369,-0.04,,
5.37,-0.06,,
5.371,-0.06,,
5.372,-0.06,,
5.373,-0.02,,
5.374,-0.01,,
5.375,0.01,,
5.376,0.01,,
5.377,0.03,,
5.378,0.04,,
5.379,0.05,,
5.38,0.05,,
5.381,0.03,,
5.382,0.03,,
5.383,0.02,,
5.384,0,,
5.385,-0.01,,
5.386,0.01,,
5.387,0,,
5.388,-0.06,,
5.389,-0.06,,
5.39,-0.06,,
5.391,-0.07,,
5.392,-0.04,,
5.393,-0.05,,
5.394,-0.02,,
5.395,0,,
5.396,0.02,,
5.397,0.02,,
5.398,0.04,,
5.399,0.04,,
5.4,0.05,,
5.401,0.07,,
5.402,0.05,,
5.403,0.04,,
5.404,0.01,,
5.405,0.01,,
5.406,0,,
5.407,-0.02,,
5.408,-0.02,,
5.409,-0.04,,
5.41,-0.07,,
5.411,-0.07,,
5.412,-0.04,,
5.413,-0.01,,
5.414,-0.03,,
5.415,-0.01,,
5.416,0.04,,
5.417,0.05,,
5.418,0.03,,
5.419,0.07,,
5.42,0.07,,
5.421,0.07,,
5.422,0.05,,
5.423,0.06,,
5.424,0.05,,
5.425,0.03,,
5.426,0.03,,
5.427,0.02,,
5.428,0,,
5.429,-0.03,,
5.43,-0.03,,
5.431,-0.07,,
5.432,-0.06,,
5.433,-0.05,,
5.434,-0.05,,
5.435,-0.03,,
5.436,0,,
5.437,0.02,,
5.438,0.03,,
5.439,0.04,,
5.44,0.04,,
5.441,0.06,,
5.442,0.04,,
5.443,0.05,,
5.444,0.03,,
5.445,0.03,,
5.446,0,,
5.447,0,,
5.448,-0.02,,
5.449,-0.04,,
5.45,-0.06,,
5.451,-0.07,,
5.452,-0.05,,
5.453,-0.05,,
5.454,-0.06,,
5.455,-0.02,,
5.456,-0.02,,
5.457,0.01,,
5.458,0.03,,
5.459,0.06,,
5.46,0.06,,
5.461,0.04,,
5.462,0.05,,
5.463,0.07,,
5.464,0.04,,
5.465,0.04,,
5.466,0.01,,
5.467,0,,
5.468,0.01,,
5.469,0,,
5.47,-0.01,,
5.471,-0.04,,
5.472,-0.07,,
5.473,-0.07,,
5.474,-0.07,,
5.475,-0.04,,
5.476,-0.02,,
5.477,0,,
5.478,0.04,,
5.479,0.05,,
5.48,0.06,,
5.481,0.04,,
5.482,0.04,,
5.483,0.03,,
5.484,0.05,,
5.485,0.03,,
5.486,0.03,,
5.487,0.03,,
5.488,0.02,,
5.489,0.02,,
5.49,0,,
5.491,-0.05,,
5.492,-0.05,,
5.493,-0.04,,
5.494,-0.06,,
5.495,-0.05,,
5.496,-0.03,,
5.497,-0.02,,
5.498,0.02,,
5.499,0.04,,
5.5,0.07,,
5.501,0.08,,
5.502,0.05,,
5.503,0.05,,
5.504,0.05,,
5.505,0.03,,
5.506,0.02,,
5.507,0,,
5.508,0.02,,
5.509,0.01,,
5.51,-0.01,,
5.511,-0.01,,
5.512,-0.02,,
5.513,-0.03,,
5.514,-0.06,,
5.515,-0.07,,
5.516,-0.04,,
5.517,-0.01,,
5.518,0,,
5.519,0.03,,
5.52,0.07,,
5.521,0.05,,
5.522,0.06,,
5.523,0.05,,
5.524,0.06,,
5.525,0.04,,
5.526,0.04,,
5.527,0.01,,
5.528,0.03,,
5.529,0.02,,
5.53,-0.01,,
5.531,-0.04,,
5.532,-0.05,,
5.533,-0.05,,
5.534,-0.06,,
5.535,-0.06,,
5.536,-0.04,,
5.537,-0.03,,
5.538,0,,
5.539,0.03,,
5.54,0.04,,
5.541,0.05,,
5.542,0.05,,
5.543,0.07,,
5.544,0.03,,
5.545,0.03,,
5.546,0.03,,
5.547,0.02,,
5.548,0.02,,
5.549,0.01,,
5.55,0,,
5.551,-0.02,,
5.552,-0.03,,
5.553,-0.06,,
5.554,-0.04,,
5.555,-0.02,,
5.556,-0.06,,
5.557,-0.04,,
5.558,-0.01,,
5.559,0.02,,
5.56,0.04,,
5.561,0.05,,
5.562,0.05,,
5.563,0.06,,
5.564,0.03,,
5.565,0.03,,
5.566,0.06,,
5.567,0.04,,
5.568,0.02,,
5.569,0.02,,
5.57,0.03,,
5.571,-0.01,,
5.572,-0.03,,
5.573,-0.05,,
5.574,-0.05,,
5.575,-0.05,,
5.576,-0.07,,
5.577,-0.05,,
5.578,-0.06,,
5.579,-0.02,,
5.58,0.04,,
5.581,0.05,,
5.582,0.04,,
5.583,0.05,,
5.584,0.05,,
5.585,0.06,,
5.586,0.06,,
5.587,0.04,,
5.588,0.02,,
5.589,0.03,,
5.59,0.01,,
5.591,-0.01,,
5.592,-0.02,,
5.593,-0.05,,
5.594,-0.05,,
5.595,-0.04,,
5.596,-0.06,,
5.597,-0.03,,
5.598,-0.04,,
5.599,-0.03,,
5.6,0,,
5.601,0.02,,
5.602,0.04,,
5.603,0.06,,
5.604,0.06,,
5.605,0.06,,
5.606,0.04,,
5.607,0.06,,
5.608,0.01,,
5.609,0.03,,
5.61,-0.01,,
5.611,0,,
5.612,-0.02,,
5.613,-0.01,,
5.614,-0.04,,
5.615,-0.04,,
5.616,-0.05,,
5.617,-0.04,,
5.618,-0.02,,
5.619,-0.04,,
5.62,-0.03,,
5.621,-0.01,,
5.622,0.02,,
5.623,0.04,,
5.624,0.03,,
5.625,0.04,,
5.626,0.07,,
5.627,0.06,,
5.628,0.04,,
5.629,0.03,,
5.63,0.04,,
5.631,0.02,,
5.632,0,,
5.633,-0.01,,
5.634,-0.04,,
5.635,-0.04,,
5.636,-0.03,,
5.637,-0.06,,
5.638,-0.06,,
5.639,-0.03,,
5.64,-0.03,,
5.641,0,,
5.642,0.02,,
5.643,0.05,,
5.644,0.05,,
5.645,0.04,,
5.646,0.05,,
5.647,0.05,,
5.648,0.04,,
5.649,0.01,,
5.65,0,,
5.651,0,,
5.652,0.01,,
5.653,-0.01,,
5.654,-0.04,,
5.655,-0.06,,
5.656,-0.04,,
5.657,-0.06,,
5.658,-0.05,,
5.659,-0.06,,
5.66,0,,
5.661,0,,
5.662,0.03,,
5.663,0.04,,
5.664,0.04,,
5.665,0.06,,
5.666,0.07,,
5.667,0.03,,
5.668,0.04,,
5.669,0.05,,
5.67,0.02,,
5.671,0.01,,
5.672,0,,
5.673,0.02,,
5.674,0,,
5.675,-0.03,,
5.676,-0.06,,
5.677,-0.06,,
5.678,-0.07,,
5.679,-0.05,,
5.68,-0.03,,
5.681,-0.02,,
5.682,0.01,,
5.683,0.04,,
5.684,0.06,,
5.685,0.04,,
5.686,0.03,,
5.687,0.04,,
5.688,0.07,,
5.689,0.06,,
5.69,0.03,,
5.691,0.03,,
5.692,0,,
5.693,-0.01,,
5.694,-0.02,,
5.695,-0.03,,
5.696,-0.05,,
5.697,-0.05,,
5.698,-0.05,,
5.699,-0.03,,
5.7,-0.05,,
5.701,-0.03,,
5.702,0,,
5.703,0.06,,
5.704,0.07,,
5.705,0.07,,
5.706,0.06,,
5.707,0.07,,
5.708,0.11,,
5.709,0.08,,
5.71,0.05,,
5.711,0.03,,
5.712,0,,
5.713,0.02,,
5.714,0.02,,
5.715,-0.02,,
5.716,-0.06,,
5.717,-0.06,,
5.718,-0.06,,
5.719,-0.05,,
5.72,-0.02,,
5.721,0,,
5.722,-0.03,,
5.723,-0.04,,
5.724,0.01,,
5.725,0.04,,
5.726,0.04,,
5.727,0.07,,
5.728,0.05,,
5.729,0.05,,
5.73,0.06,,
5.731,0.03,,
5.732,0,,
5.733,-0.03,,
5.734,-0.03,,
5.735,0,,
5.736,0.02,,
5.737,0.02,,
5.738,0.04,,
5.739,-0.01,,
5.74,-0.02,,
5.741,-0.04,,
5.742,-0.1,,
5.743,-0.13,,
5.744,-0.06,,
5.745,-0.01,,
5.746,0.04,,
5.747,0.1,,
5.748,0.09,,
5.749,0.1,,
5.75,0.09,,
5.751,0.09,,
5.752,0.03,,
5.753,0.02,,
5.754,-0.02,,
5.755,-0.01,,
5.756,0,,
5.757,-0.01,,
5.758,-0.05,,
5.759,-0.06,,
5.76,-0.03,,
5.761,-0.03,,
5.762,-0.04,,
5.763,-0.03,,
5.764,-0.01,,
5.765,0.05,,
5.766,0.07,,
5.767,0.04,,
5.768,0.06,,
5.769,0.05,,
5.77,0.05,,
5.771,0.06,,
5.772,0.04,,
5.773,0.03,,
5.774,0.03,,
5.775,0,,
5.776,-0.01,,
5.777,-0.04,,
5.778,-0.05,,
5.779,-0.07,,
5.78,-0.05,,
5.781,-0.06,,
5.782,-0.03,,
5.783,-0.01,,
5.784,-0.01,,
5.785,0.01,,
5.786,0.02,,
5.787,0.05,,
5.788,0.06,,
5.789,0.08,,
5.79,0.06,,
5.791,0.04,,
5.792,0.01,,
5.793,0.01,,
5.794,0.01,,
5.795,0,,
5.796,0,,
5.797,0,,
5.798,-0.04,,
5.799,-0.04,,
5.8,-0.04,,
5.801,-0.05,,
5.802,-0.04,,
5.803,-0.02,,
5.804,-0.03,,
5.805,0.01,,
5.806,0.03,,
5.807,0.03,,
5.808,0.04,,
5.809,0.07,,
5.81,0.06,,
5.811,0.07,,
5.812,0.07,,
5.813,0.04,,
5.814,0.02,,
5.815,0.01,,
5.816,0.01,,
5.817,0,,
5.818,-0.04,,
5.819,-0.06,,
5.82,-0.08,,
5.821,-0.05,,
5.822,-0.03,,
5.823,-0.05,,
5.824,-0.03,,
5.825,-0.01,,
5.826,0.02,,
5.827,0.04,,
5.828,0.03,,
5.829,0.06,,
5.83,0.05,,
5.831,0.01,,
5.832,0.03,,
5.833,0.02,,
5.834,0.02,,
5.835,0.02,,
5.836,0.02,,
5.837,0.01,,
5.838,-0.02,,
5.839,-0.05,,
5.84,-0.06,,
5.841,-0.06,,
5.842,-0.08,,
5.843,-0.07,,
5.844,-0.03,,
5.845,0,,
5.846,0.02,,
5.847,0.06,,
5.848,0.07,,
5.849,0.09,,
5.85,0.07,,
5.851,0.07,,
5.852,0.07,,
5.853,0.04,,
5.854,0.02,,
5.855,0.01,,
5.856,0.02,,
5.857,0.02,,
5.858,0,,
5.859,-0.03,,
5.86,-0.03,,
5.861,-0.03,,
5.862,-0.08,,
5.863,-0.07,,
5.864,-0.06,,
5.865,-0.03,,
5.866,-0.02,,
5.867,0.03,,
5.868,0.06,,
5.869,0.07,,
5.87,0.08,,
5.871,0.08,,
5.872,0.05,,
5.873,0.05,,
5.874,0.03,,
5.875,0.01,,
5.876,-0.02,,
5.877,-0.01,,
5.878,-0.02,,
5.879,-0.02,,
5.88,-0.03,,
5.881,-0.05,,
5.882,-0.05,,
5.883,-0.06,,
5.884,-0.06,,
5.885,-0.01,,
5.886,0,,
5.887,0.02,,
5.888,0.06,,
5.889,0.05,,
5.89,0.06,,
5.891,0.07,,
5.892,0.06,,
5.893,0.03,,
5.894,0.04,,
5.895,0.01,,
5.896,0.02,,
5.897,0.03,,
5.898,-0.01,,
5.899,-0.01,,
5.9,-0.02,,
5.901,-0.05,,
5.902,-0.05,,
5.903,-0.06,,
5.904,-0.05,,
5.905,-0.03,,
5.906,-0.03,,
5.907,0.01,,
5.908,0.06,,
5.909,0.06,,
5.91,0.05,,
5.911,0.06,,
5.912,0.03,,
5.913,0.04,,
5.914,0.05,,
5.915,0.06,,
5.916,0.03,,
5.917,0.02,,
5.918,0.02,,
5.919,-0.01,,
5.92,-0.05,,
5.921,-0.08,,
5.922,-0.08,,
5.923,-0.08,,
5.924,-0.05,,
5.925,-0.05,,
5.926,-0.01,,
5.927,0.03,,
5.928,0.07,,
5.929,,,
5.93,,,
5.931,,,
5.932,,,
5.933,,,
5.934,,,
5.935,,,
5.936,,,
5.937,,,
5.938,,,
5.939,,,
5.94,,,
5.941,,,
5.942,,,
5.943,,,
5.944,,,
5.945,,,
5.946,,,
5.947,,,
5.948,,,
5.949,,,
5.95,,,
5.951,,,
5.952,,,
5.953,,,
5.954,,,
5.955,,,
5.956,,,
5.957,,,
5.958,,,
5.959,,,
5.96,,,
5.961,,,
5.962,,,
5.963,,,
5.964,,,
5.965,,,
5.966,,,
5.967,,,
5.968,,,
5.969,,,
5.97,,,
5.971,,,
5.972,,,
5.973,,,
5.974,,,
5.975,,,
5.976,,,
5.977,,,
5.978,,,
5.979,,,
5.98,,,
5.981,,,
5.982,,,
5.983,,,
5.984,,,
5.985,,,
5.986,,,
5.987,,,
5.988,,,
5.989,,,
5.99,,,
5.991,,,
5.992,,,
5.993,,,
5.994,,,
5.995,,,
5.996,,,
5.997,,,
5.998,,,
5.999,,,
6,,,
6.001,,,
6.002,,,
6.003,,,
6.004,,,
6.005,,,
6.006,,,
6.007,,,
6.008,,,
6.009,,,
6.01,,,
6.011,,,
6.012,,,
6.013,,,
6.014,,,
6.015,,,
6.016,,,
6.017,,,
6.018,,,
6.019,,,
6.02,,,
6.021,,,
6.022,,,
6.023,,,
6.024,,,
6.025,,,
6.026,,,
6.027,,,
6.028,,,
6.029,,,
6.03,,,
6.031,,,
6.032,,,
6.033,,,
6.034,,,
6.035,,,
6.036,,,
6.037,,,
6.038,,,
6.039,,,
6.04,,,
6.041,,,
6.042,,,
6.043,,,
6.044,,,
6.045,,,
6.046,,,
6.047,,,
6.048,,,
6.049,,,
6.05,,,
6.051,,,
6.052,,,
6.053,,,
6.054,,,
6.055,,,
6.056,,,
6.057,,,
6.058,,,
6.059,,,
6.06,,,
6.061,,,
6.062,,,
6.063,,,
6.064,,,
6.065,,,
6.066,,,
6.067,,,
6.068,,,
6.069,,,
6.07,,,
6.071,,,
6.072,,,
6.073,,,
6.074,,,
6.075,,,
6.076,,,
6.077,,,
6.078,,,
6.079,,,
6.08,,,
6.081,,,
6.082,,,
6.083,,,
6.084,,,
6.085,,,
6.086,,,
6.087,,,
6.088,,,
6.089,,,
6.09,,,
6.091,,,
6.092,,,
6.093,,,
6.094,,,
6.095,,,
6.096,,,
6.097,,,
6.098,,,
6.099,,,
6.1,,,
6.101,,,
6.102,,,
6.103,,,
6.104,,,
6.105,,,
6.106,,,
6.107,,,
6.108,,,
6.109,,,
6.11,,,
6.111,,,
6.112,,,
6.113,,,
6.114,,,
6.115,,,
6.116,,,
6.117,,,
6.118,,,
6.119,,,
6.12,,,
6.121,,,
6.122,,,
6.123,,,
6.124,,,
6.125,,,
6.126,,,
6.127,,,
6.128,,,
6.129,,,
6.13,,,
6.131,,,
6.132,,,
6.133,,,
6.134,,,
6.135,,,
6.136,,,
6.137,,,
6.138,,,
6.139,,,
6.14,,,
6.141,,,
6.142,,,
6.143,,,
6.144,,,
6.145,,,
6.146,,,
6.147,,,
6.148,,,
6.149,,,
6.15,,,
6.151,,,
6.152,,,
6.153,,,
6.154,,,
6.155,,,
6.156,,,
6.157,,,
6.158,,,
6.159,,,
6.16,,,
6.161,,,
6.162,,,
6.163,,,
6.164,,,
6.165,,,
6.166,,,
6.167,,,
6.168,,,
6.169,,,
6.17,,,
6.171,,,
6.172,,,
6.173,,,
6.174,,,
6.175,,,
6.176,,,
6.177,,,
6.178,,,
6.179,,,
6.18,,,
6.181,,,
6.182,,,
6.183,,,
6.184,,,
6.185,,,
6.186,,,
6.187,,,
6.188,,,
6.189,,,
6.19,,,
6.191,,,
6.192,,,
6.193,,,
6.194,,,
6.195,,,
6.196,,,
6.197,,,
6.198,,,
6.199,,,
6.2,,,
6.201,,,
6.202,,,
6.203,,,
6.204,,,
6.205,,,
6.206,,,
6.207,,,
6.208,,,
6.209,,,
6.21,,,
6.211,,,
6.212,,,
6.213,,,
6.214,,,
6.215,,,
6.216,,,
6.217,,,
6.218,,,
6.219,,,
6.22,,,
6.221,,,
6.222,,,
6.223,,,
6.224,,,
6.225,,,
6.226,,,
6.227,,,
6.228,,,
6.229,,,
6.23,,,
6.231,,,
6.232,,,
6.233,,,
6.234,,,
6.235,,,
6.236,,,
6.237,,,
6.238,,,
6.239,,,
6.24,,,
6.241,,,
6.242,,,
6.243,,,
6.244,,,
6.245,,,
6.246,,,
6.247,,,
6.248,,,
6.249,,,
6.25,,,
6.251,,,
6.252,,,
6.253,,,
6.254,,,
6.255,,,
6.256,,,
6.257,,,
6.258,,,
6.259,,,
6.26,,,
6.261,,,
6.262,,,
6.263,,,
6.264,,,
6.265,,,
6.266,,,
6.267,,,
6.268,,,
6.269,,,
6.27,,,
6.271,,,
6.272,,,
6.273,,,
6.274,,,
6.275,,,
6.276,,,
6.277,,,
6.278,,,
6.279,,,
6.28,,,
6.281,,,
6.282,,,
6.283,,,
6.284,,,
6.285,,,
6.286,,,
6.287,,,
6.288,,,
6.289,,,
6.29,,,
6.291,,,
6.292,,,
6.293,,,
6.294,,,
6.295,,,
6.296,,,
6.297,,,
6.298,,,
6.299,,,
6.3,,,
6.301,,,
6.302,,,
6.303,,,
6.304,,,
6.305,,,
6.306,,,
6.307,,,
6.308,,,
6.309,,,
6.31,,,
6.311,,,
6.312,,,
6.313,,,
6.314,,,
6.315,,,
6.316,,,
6.317,,,
6.318,,,
6.319,,,
6.32,,,
6.321,,,
6.322,,,
6.323,,,
6.324,,,
6.325,,,
6.326,,,
6.327,,,
6.328,,,
6.329,,,
6.33,,,
6.331,,,
6.332,,,
6.333,,,
6.334,,,
6.335,,,
6.336,,,
6.337,,,
6.338,,,
6.339,,,
6.34,,,
6.341,,,
6.342,,,
6.343,,,
6.344,,,
6.345,,,
6.346,,,
6.347,,,
6.348,,,
6.349,,,
6.35,,,
6.351,,,
6.352,,,
6.353,,,
6.354,,,
6.355,,,
6.356,,,
6.357,,,
6.358,,,
6.359,,,
6.36,,,
6.361,,,
6.362,,,
6.363,,,
6.364,,,
6.365,,,
6.366,,,
6.367,,,
6.368,,,
6.369,,,
6.37,,,
6.371,,,
6.372,,,
6.373,,,
6.374,,,
6.375,,,
6.376,,,
6.377,,,
6.378,,,
6.379,,,
6.38,,,
6.381,,,
6.382,,,
6.383,,,
6.384,,,
6.385,,,
6.386,,,
6.387,,,
6.388,,,
6.389,,,
6.39,,,
6.391,,,
6.392,,,
6.393,,,
6.394,,,
6.395,,,
6.396,,,
6.397,,,
6.398,,,
6.399,,,
6.4,,,
6.401,,,
6.402,,,
6.403,,,
6.404,,,
6.405,,,
6.406,,,
6.407,,,
6.408,,,
6.409,,,
6.41,,,
6.411,,,
6.412,,,
6.413,,,
6.414,,,
6.415,,,
6.416,,,
6.417,,,
6.418,,,
6.419,,,
6.42,,,
6.421,,,
6.422,,,
6.423,,,
6.424,,,
6.425,,,
6.426,,,
6.427,,,
6.428,,,
6.429,,,
6.43,,,
6.431,,,
6.432,,,
6.433,,,
6.434,,,
6.435,,,
6.436,,,
6.437,,,
6.438,,,
6.439,,,
6.44,,,
6.441,,,
6.442,,,
6.443,,,
6.444,,,
6.445,,,
6.446,,,
6.447,,,
6.448,,,
6.449,,,
6.45,,,
6.451,,,
6.452,,,
6.453,,,
6.454,,,
6.455,,,
6.456,,,
6.457,,,
6.458,,,
6.459,,,
6.46,,,
6.461,,,
6.462,,,
6.463,,,
6.464,,,
6.465,,,
6.466,,,
6.467,,,
6.468,,,
6.469,,,
6.47,,,
6.471,,,
6.472,,,
6.473,,,
6.474,,,
6.475,,,
6.476,,,
6.477,,,
6.478,,,
6.479,,,
6.48,,,
6.481,,,
6.482,,,
6.483,,,
6.484,,,
6.485,,,
6.486,,,
6.487,,,
6.488,,,
6.489,,,
6.49,,,
6.491,,,
6.492,,,
6.493,,,
6.494,,,
6.495,,,
6.496,,,
6.497,,,
6.498,,,
6.499,,,
6.5,,,
6.501,,,
6.502,,,
6.503,,,
6.504,,,
6.505,,,
6.506,,,
6.507,,,
6.508,,,
6.509,,,
6.51,,,
6.511,,,
6.512,,,
6.513,,,
6.514,,,
6.515,,,
6.516,,,
6.517,,,
6.518,,,
6.519,,,
6.52,,,
6.521,,,
6.522,,,
6.523,,,
6.524,,,
6.525,,,
6.526,,,
6.527,,,
6.528,,,
6.529,,,
6.53,,,
6.531,,,
6.532,,,
6.533,,,
6.534,,,
6.535,,,
6.536,,,
6.537,,,
6.538,,,
6.539,,,
6.54,,,
6.541,,,
6.542,,,
6.543,,,
6.544,,,
6.545,,,
6.546,,,
6.547,,,
6.548,,,
6.549,,,
6.55,,,
6.551,,,
6.552,,,
6.553,,,
6.554,,,
6.555,,,
6.556,,,
6.557,,,
6.558,,,
6.559,,,
6.56,,,
6.561,,,
6.562,,,
6.563,,,
6.564,,,
6.565,,,
6.566,,,
6.567,,,
6.568,,,
6.569,,,
6.57,,,
6.571,,,
6.572,,,
6.573,,,
6.574,,,
6.575,,,
6.576,,,
6.577,,,
6.578,,,
6.579,,,
6.58,,,
6.581,,,
6.582,,,
6.583,,,
6.584,,,
6.585,,,
6.586,,,
6.587,,,
6.588,,,
6.589,,,
6.59,,,
6.591,,,
6.592,,,
6.593,,,
6.594,,,
6.595,,,
6.596,,,
6.597,,,
6.598,,,
6.599,,,
6.6,,,
6.601,,,
6.602,,,
6.603,,,
6.604,,,
6.605,,,
6.606,,,
6.607,,,
6.608,,,
6.609,,,
6.61,,,
6.611,,,
6.612,,,
6.613,,,
6.614,,,
6.615,,,
6.616,,,
6.617,,,
6.618,,,
6.619,,,
6.62,,,
6.621,,,
6.622,,,
6.623,,,
6.624,,,
6.625,,,
6.626,,,
6.627,,,
6.628,,,
6.629,,,
6.63,,,
6.631,,,
6.632,,,
6.633,,,
6.634,,,
6.635,,,
6.636,,,
6.637,,,
6.638,,,
6.639,,,
6.64,,,
6.641,,,
6.642,,,
6.643,,,
6.644,,,
6.645,,,
6.646,,,
6.647,,,
6.648,,,
6.649,,,
6.65,,,
6.651,,,
6.652,,,
6.653,,,
6.654,,,
6.655,,,
6.656,,,
6.657,,,
6.658,,,
6.659,,,
6.66,,,
6.661,,,
6.662,,,
6.663,,,
6.664,,,
6.665,,,
6.666,,,
6.667,,,
6.668,,,
6.669,,,
6.67,,,
6.671,,,
6.672,,,
6.673,,,
6.674,,,
6.675,,,
6.676,,,
6.677,,,
6.678,,,
6.679,,,
6.68,,,
6.681,,,
6.682,,,
6.683,,,
6.684,,,
6.685,,,
6.686,,,
6.687,,,
6.688,,,
6.689,,,
6.69,,,
6.691,,,
6.692,,,
6.693,,,
6.694,,,
6.695,,,
6.696,,,
6.697,,,
6.698,,,
6.699,,,
6.7,,,
6.701,,,
6.702,,,
6.703,,,
6.704,,,
6.705,,,
6.706,,,
6.707,,,
6.708,,,
6.709,,,
6.71,,,
6.711,,,
6.712,,,
6.713,,,
6.714,,,
6.715,,,
6.716,,,
6.717,,,
6.718,,,
6.719,,,
6.72,,,
6.721,,,
6.722,,,
6.723,,,
6.724,,,
6.725,,,
6.726,,,
6.727,,,
6.728,,,
6.729,,,
6.73,,,
6.731,,,
6.732,,,
6.733,,,
6.734,,,
6.735,,,
6.736,,,
6.737,,,
6.738,,,
6.739,,,
6.74,,,
6.741,,,
6.742,,,
6.743,,,
6.744,,,
6.745,,,
6.746,,,
6.747,,,
6.748,,,
6.749,,,
6.75,,,
6.751,,,
6.752,,,
6.753,,,
6.754,,,
6.755,,,
6.756,,,
6.757,,,
6.758,,,
6.759,,,
6.76,,,
6.761,,,
6.762,,,
6.763,,,
6.764,,,
6.765,,,
6.766,,,
6.767,,,
6.768,,,
6.769,,,
6.77,,,
6.771,,,
6.772,,,
6.773,,,
6.774,,,
6.775,,,
6.776,,,
6.777,,,
6.778,,,
6.779,,,
6.78,,,
6.781,,,
6.782,,,
6.783,,,
6.784,,,
6.785,,,
6.786,,,
6.787,,,
6.788,,,
6.789,,,
6.79,,,
6.791,,,
6.792,,,
6.793,,,
6.794,,,
6.795,,,
6.796,,,
6.797,,,
6.798,,,
6.799,,,
6.8,,,
6.801,,,
6.802,,,
6.803,,,
6.804,,,
6.805,,,
6.806,,,
6.807,,,
6.808,,,
6.809,,,
6.81,,,
6.811,,,
6.812,,,
6.813,,,
6.814,,,
6.815,,,
6.816,,,
6.817,,,
6.818,,,
6.819,,,
6.82,,,
6.821,,,
6.822,,,
6.823,,,
6.824,,,
6.825,,,
6.826,,,
6.827,,,
6.828,,,
6.829,,,
6.83,,,
6.831,,,
6.832,,,
6.833,,,
6.834,,,
6.835,,,
6.836,,,
6.837,,,
6.838,,,
6.839,,,
6.84,,,
6.841,,,
6.842,,,
6.843,,,
6.844,,,
6.845,,,
6.846,,,
6.847,,,
6.848,,,
6.849,,,
6.85,,,
6.851,,,
6.852,,,
6.853,,,
6.854,,,
6.855,,,
6.856,,,
6.857,,,
6.858,,,
6.859,,,
6.86,,,
6.861,,,
6.862,,,
6.863,,,
6.864,,,
6.865,,,
6.866,,,
6.867,,,
6.868,,,
6.869,,,
6.87,,,
6.871,,,
6.872,,,
6.873,,,
6.874,,,
6.875,,,
6.876,,,
6.877,,,
6.878,,,
6.879,,,
6.88,,,
6.881,,,
6.882,,,
6.883,,,
6.884,,,
6.885,,,
6.886,,,
6.887,,,
6.888,,,
6.889,,,
6.89,,,
6.891,,,
6.892,,,
6.893,,,
6.894,,,
6.895,,,
6.896,,,
6.897,,,
6.898,,,
6.899,,,
6.9,,,
6.901,,,
6.902,,,
6.903,,,
6.904,,,
6.905,,,
6.906,,,
6.907,,,
6.908,,,
6.909,,,
6.91,,,
6.911,,,
6.912,,,
6.913,,,
6.914,,,
6.915,,,
6.916,,,
6.917,,,
6.918,,,
6.919,,,
6.92,,,
6.921,,,
6.922,,,
6.923,,,
6.924,,,
6.925,,,
6.926,,,
6.927,,,
6.928,,,
6.929,,,
6.93,,,
6.931,,,
6.932,,,
6.933,,,
6.934,,,
6.935,,,
6.936,,,
6.937,,,
6.938,,,
6.939,,,
6.94,,,
6.941,,,
6.942,,,
6.943,,,
6.944,,,
6.945,,,
6.946,,,
6.947,,,
6.948,,,
6.949,,,
6.95,,,
6.951,,,
6.952,,,
6.953,,,
6.954,,,
6.955,,,
6.956,,,
6.957,,,
6.958,,,
6.959,,,
6.96,,,
6.961,,,
6.962,,,
6.963,,,
