"Time[s]",Voltage[V],,
0.001,0.04,,Rate:1kHz
0.002,0.04,,
0.003,0.04,,
0.004,0.02,,
0.005,0.03,,
0.006,0.01,,
0.007,-0.01,,
0.008,-0.03,,
0.009,-0.04,,
0.01,-0.06,,
0.011,-0.04,,
0.012,-0.07,,
0.013,-0.06,,
0.014,-0.06,,
0.015,-0.01,,
0.016,0.02,,
0.017,0.01,,
0.018,0.03,,
0.019,0.03,,
0.02,0.06,,
0.021,0.05,,
0.022,0.05,,
0.023,0.04,,
0.024,0.04,,
0.025,0.04,,
0.026,0.04,,
0.027,0.01,,
0.028,0,,
0.029,0,,
0.03,-0.04,,
0.031,-0.07,,
0.032,-0.06,,
0.033,-0.06,,
0.034,-0.05,,
0.035,-0.02,,
0.036,-0.02,,
0.037,0.01,,
0.038,0,,
0.039,0.04,,
0.04,0.03,,
0.041,0.03,,
0.042,0.02,,
0.043,0.05,,
0.044,0.07,,
0.045,0.09,,
0.046,0.07,,
0.047,0.04,,
0.048,0,,
0.049,-0.03,,
0.05,-0.03,,
0.051,-0.08,,
0.052,-0.06,,
0.053,-0.07,,
0.054,-0.07,,
0.055,-0.06,,
0.056,-0.05,,
0.057,-0.03,,
0.058,0.02,,
0.059,0.02,,
0.06,0.04,,
0.061,0.06,,
0.062,0.06,,
0.063,0.08,,
0.064,0.11,,
0.065,0.1,,
0.066,0.06,,
0.067,0.04,,
0.068,-0.01,,
0.069,-0.07,,
0.07,-0.06,,
0.071,-0.12,,
0.072,-0.08,,
0.073,-0.02,,
0.074,-0.01,,
0.075,-0.02,,
0.076,-0.03,,
0.077,-0.02,,
0.078,0.01,,
0.079,0.03,,
0.08,0.03,,
0.081,0.03,,
0.082,0.05,,
0.083,0.04,,
0.084,0.05,,
0.085,0.04,,
0.086,0.01,,
0.087,0,,
0.088,0,,
0.089,0,,
0.09,0,,
0.091,-0.04,,
0.092,-0.09,,
0.093,-0.09,,
0.094,-0.07,,
0.095,-0.04,,
0.096,-0.05,,
0.097,-0.01,,
0.098,-0.01,,
0.099,0.04,,
0.1,0.03,,
0.101,0.02,,
0.102,0.04,,
0.103,0.04,,
0.104,0.04,,
0.105,0.04,,
0.106,0.04,,
0.107,0.04,,
0.108,0.02,,
0.109,0.02,,
0.11,-0.03,,
0.111,-0.04,,
0.112,-0.08,,
0.113,-0.07,,
0.114,-0.07,,
0.115,-0.07,,
0.116,-0.05,,
0.117,-0.04,,
0.118,-0.03,,
0.119,0,,
0.12,0.02,,
0.121,0.02,,
0.122,0.01,,
0.123,0.03,,
0.124,0.01,,
0.125,0.02,,
0.126,0.01,,
0.127,0.02,,
0.128,-0.01,,
0.129,-0.04,,
0.13,-0.05,,
0.131,-0.04,,
0.132,-0.07,,
0.133,-0.09,,
0.134,-0.09,,
0.135,-0.11,,
0.136,-0.1,,
0.137,-0.08,,
0.138,-0.05,,
0.139,-0.01,,
0.14,0.02,,
0.141,0,,
0.142,0.03,,
0.143,0,,
0.144,0,,
0.145,0,,
0.146,0,,
0.147,-0.03,,
0.148,-0.02,,
0.149,-0.07,,
0.15,-0.08,,
0.151,-0.08,,
0.152,-0.08,,
0.153,-0.09,,
0.154,-0.1,,
0.155,-0.12,,
0.156,-0.12,,
0.157,-0.1,,
0.158,-0.07,,
0.159,-0.06,,
0.16,-0.05,,
0.161,-0.01,,
0.162,0,,
0.163,0,,
0.164,0.01,,
0.165,0.05,,
0.166,0.02,,
0.167,0.03,,
0.168,0.02,,
0.169,0.01,,
0.17,-0.02,,
0.171,-0.04,,
0.172,-0.04,,
0.173,-0.07,,
0.174,-0.08,,
0.175,-0.08,,
0.176,-0.05,,
0.177,-0.06,,
0.178,-0.05,,
0.179,-0.03,,
0.18,-0.01,,
0.181,0.02,,
0.182,0.04,,
0.183,0.06,,
0.184,0.06,,
0.185,0.08,,
0.186,0.07,,
0.187,0.06,,
0.188,0.07,,
0.189,0.07,,
0.19,0.08,,
0.191,0.05,,
0.192,0.03,,
0.193,0,,
0.194,-0.02,,
0.195,-0.01,,
0.196,-0.05,,
0.197,-0.06,,
0.198,-0.04,,
0.199,0.02,,
0.2,0.02,,
0.201,0.07,,
0.202,0.09,,
0.203,0.09,,
0.204,0.09,,
0.205,0.09,,
0.206,0.08,,
0.207,0.06,,
0.208,0.04,,
0.209,0.03,,
0.21,0.02,,
0.211,0.01,,
0.212,-0.03,,
0.213,-0.05,,
0.214,-0.04,,
0.215,-0.01,,
0.216,0,,
0.217,-0.06,,
0.218,-0.13,,
0.219,-0.18,,
0.22,-0.18,,
0.221,-0.11,,
0.222,-0.04,,
0.223,0,,
0.224,0.08,,
0.225,0.19,,
0.226,0.24,,
0.227,0.32,,
0.228,0.3,,
0.229,0.27,,
0.23,0.26,,
0.231,0.22,,
0.232,0.23,,
0.233,0.2,,
0.234,0.16,,
0.235,0.13,,
0.236,0.14,,
0.237,0.15,,
0.238,0.16,,
0.239,0.15,,
0.24,0.17,,
0.241,0.11,,
0.242,0.1,,
0.243,0.08,,
0.244,0.06,,
0.245,0.06,,
0.246,0.07,,
0.247,0.04,,
0.248,0.03,,
0.249,0,,
0.25,0,,
0.251,0.03,,
0.252,0.04,,
0.253,0.01,,
0.254,0,,
0.255,0,,
0.256,0.01,,
0.257,-0.02,,
0.258,-0.05,,
0.259,-0.03,,
0.26,-0.03,,
0.261,-0.04,,
0.262,-0.01,,
0.263,0,,
0.264,-0.02,,
0.265,-0.02,,
0.266,-0.03,,
0.267,-0.01,,
0.268,0.01,,
0.269,0,,
0.27,0.01,,
0.271,0.01,,
0.272,0.04,,
0.273,-0.02,,
0.274,-0.01,,
0.275,-0.02,,
0.276,-0.04,,
0.277,-0.05,,
0.278,-0.03,,
0.279,-0.05,,
0.28,0,,
0.281,0,,
0.282,0.03,,
0.283,0.07,,
0.284,0.08,,
0.285,0.08,,
0.286,0.08,,
0.287,0.07,,
0.288,0.08,,
0.289,0.09,,
0.29,0.08,,
0.291,0.08,,
0.292,0.1,,
0.293,0.07,,
0.294,0.02,,
0.295,-0.03,,
0.296,-0.08,,
0.297,-0.14,,
0.298,-0.14,,
0.299,-0.16,,
0.3,-0.17,,
0.301,-0.12,,
0.302,-0.06,,
0.303,-0.06,,
0.304,-0.02,,
0.305,0.01,,
0.306,0.04,,
0.307,0.03,,
0.308,0.02,,
0.309,-0.02,,
0.31,-0.04,,
0.311,-0.04,,
0.312,-0.04,,
0.313,-0.04,,
0.314,-0.09,,
0.315,-0.09,,
0.316,-0.1,,
0.317,-0.14,,
0.318,-0.13,,
0.319,-0.09,,
0.32,-0.07,,
0.321,-0.05,,
0.322,0.01,,
0.323,0.09,,
0.324,0.09,,
0.325,0.09,,
0.326,0.04,,
0.327,0.05,,
0.328,0.06,,
0.329,0.05,,
0.33,0.06,,
0.331,0.05,,
0.332,0.04,,
0.333,0.03,,
0.334,0,,
0.335,-0.03,,
0.336,-0.08,,
0.337,-0.09,,
0.338,-0.12,,
0.339,-0.1,,
0.34,-0.08,,
0.341,-0.06,,
0.342,-0.02,,
0.343,0.02,,
0.344,0.06,,
0.345,0.06,,
0.346,0.04,,
0.347,0.07,,
0.348,0.04,,
0.349,0.05,,
0.35,0.04,,
0.351,0.05,,
0.352,0.05,,
0.353,0.03,,
0.354,0.01,,
0.355,0,,
0.356,-0.08,,
0.357,-0.13,,
0.358,-0.14,,
0.359,-0.15,,
0.36,-0.12,,
0.361,-0.08,,
0.362,-0.04,,
0.363,0.02,,
0.364,0.07,,
0.365,0.11,,
0.366,0.12,,
0.367,0.08,,
0.368,-0.03,,
0.369,-0.11,,
0.37,-0.12,,
0.371,-0.09,,
0.372,-0.04,,
0.373,-0.02,,
0.374,-0.01,,
0.375,0.09,,
0.376,0.16,,
0.377,0.12,,
0.378,0,,
0.379,-0.05,,
0.38,-0.1,,
0.381,-0.11,,
0.382,-0.11,,
0.383,-0.11,,
0.384,-0.09,,
0.385,-0.07,,
0.386,-0.04,,
0.387,-0.01,,
0.388,-0.01,,
0.389,0.01,,
0.39,0.02,,
0.391,0.1,,
0.392,0.15,,
0.393,0.15,,
0.394,0.14,,
0.395,0.14,,
0.396,0.08,,
0.397,0,,
0.398,-0.05,,
0.399,-0.1,,
0.4,-0.12,,
0.401,-0.11,,
0.402,-0.11,,
0.403,-0.07,,
0.404,0,,
0.405,0.01,,
0.406,0.06,,
0.407,0.04,,
0.408,0.04,,
0.409,0.06,,
0.41,0.07,,
0.411,0.06,,
0.412,0.04,,
0.413,0.04,,
0.414,0.02,,
0.415,0.03,,
0.416,0.03,,
0.417,-0.01,,
0.418,-0.05,,
0.419,-0.11,,
0.42,-0.13,,
0.421,-0.13,,
0.422,-0.11,,
0.423,-0.09,,
0.424,-0.04,,
0.425,-0.01,,
0.426,0,,
0.427,0.02,,
0.428,0.04,,
0.429,0.02,,
0.43,0.03,,
0.431,0,,
0.432,0.02,,
0.433,0.01,,
0.434,0,,
0.435,-0.03,,
0.436,-0.01,,
0.437,-0.02,,
0.438,-0.04,,
0.439,-0.07,,
0.44,-0.1,,
0.441,-0.08,,
0.442,-0.11,,
0.443,-0.08,,
0.444,-0.05,,
0.445,-0.02,,
0.446,-0.01,,
0.447,0.04,,
0.448,0.05,,
0.449,0.06,,
0.45,0.08,,
0.451,0.08,,
0.452,0.07,,
0.453,0.05,,
0.454,0,,
0.455,-0.06,,
0.456,-0.14,,
0.457,-0.24,,
0.458,-0.3,,
0.459,-0.28,,
0.46,-0.22,,
0.461,-0.1,,
0.462,0.06,,
0.463,0.2,,
0.464,0.19,,
0.465,0.12,,
0.466,0.05,,
0.467,0.03,,
0.468,0.07,,
0.469,0.08,,
0.47,0.09,,
0.471,0.09,,
0.472,0.08,,
0.473,0.07,,
0.474,0.06,,
0.475,0.05,,
0.476,0.03,,
0.477,0.01,,
0.478,0.02,,
0.479,-0.04,,
0.48,-0.05,,
0.481,-0.08,,
0.482,-0.09,,
0.483,-0.08,,
0.484,-0.08,,
0.485,-0.06,,
0.486,-0.02,,
0.487,0,,
0.488,0.02,,
0.489,0.04,,
0.49,0.04,,
0.491,0.02,,
0.492,0.04,,
0.493,0.06,,
0.494,0.05,,
0.495,0.05,,
0.496,0.07,,
0.497,0.03,,
0.498,0,,
0.499,-0.03,,
0.5,-0.05,,
0.501,-0.08,,
0.502,-0.08,,
0.503,-0.09,,
0.504,-0.09,,
0.505,-0.08,,
0.506,-0.05,,
0.507,-0.02,,
0.508,0,,
0.509,-0.02,,
0.51,-0.03,,
0.511,-0.05,,
0.512,-0.06,,
0.513,-0.03,,
0.514,0.02,,
0.515,0.07,,
0.516,0.04,,
0.517,0,,
0.518,0.01,,
0.519,0.05,,
0.52,0.08,,
0.521,0.07,,
0.522,0.04,,
0.523,0.02,,
0.524,0.03,,
0.525,0,,
0.526,0,,
0.527,0.02,,
0.528,0.03,,
0.529,0.04,,
0.53,0,,
0.531,0,,
0.532,-0.03,,
0.533,-0.06,,
0.534,-0.14,,
0.535,-0.2,,
0.536,-0.27,,
0.537,-0.29,,
0.538,-0.18,,
0.539,-0.06,,
0.54,0.04,,
0.541,0.12,,
0.542,0.18,,
0.543,0.21,,
0.544,0.15,,
0.545,0.1,,
0.546,0.05,,
0.547,0.06,,
0.548,0.07,,
0.549,0.02,,
0.55,0.03,,
0.551,0.05,,
0.552,0.08,,
0.553,0.05,,
0.554,-0.02,,
0.555,-0.14,,
0.556,-0.28,,
0.557,-0.39,,
0.558,-0.4,,
0.559,-0.29,,
0.56,-0.2,,
0.561,-0.06,,
0.562,0.1,,
0.563,0.13,,
0.564,-0.05,,
0.565,-0.3,,
0.566,-0.27,,
0.567,0,,
0.568,0.24,,
0.569,0.48,,
0.57,0.57,,
0.571,0.43,,
0.572,0.28,,
0.573,0.11,,
0.574,0.08,,
0.575,0.13,,
0.576,0.02,,
0.577,-0.04,,
0.578,0.01,,
0.579,0.02,,
0.58,-0.04,,
0.581,-0.28,,
0.582,-0.52,,
0.583,-0.7,,
0.584,-0.88,,
0.585,-0.82,,
0.586,-0.55,,
0.587,-0.21,,
0.588,-0.06,,
0.589,0.1,,
0.59,0.21,,
0.591,0.37,,
0.592,0.76,,
0.593,0.82,,
0.594,0.58,,
0.595,0.39,,
0.596,0.28,,
0.597,0.21,,
0.598,0.18,,
0.599,0.09,,
0.6,0.09,,
0.601,0.1,,
0.602,0.07,,
0.603,-0.18,,
0.604,-0.39,,
0.605,-0.79,,
0.606,-1.06,,
0.607,-1.09,,
0.608,-0.74,,
0.609,-0.15,,
0.61,0.1,,
0.611,0.25,,
0.612,0.5,,
0.613,0.63,,
0.614,0.36,,
0.615,0.11,,
0.616,0.02,,
0.617,0.06,,
0.618,0.08,,
0.619,-0.11,,
0.62,-0.39,,
0.621,-0.54,,
0.622,-0.24,,
0.623,0.31,,
0.624,0.74,,
0.625,0.78,,
0.626,0.56,,
0.627,0.28,,
0.628,0.1,,
0.629,0.04,,
0.63,0.21,,
0.631,0.27,,
0.632,0.07,,
0.633,-0.12,,
0.634,-0.3,,
0.635,-0.28,,
0.636,-0.26,,
0.637,-0.08,,
0.638,0.18,,
0.639,0.27,,
0.64,0.08,,
0.641,-0.07,,
0.642,-0.24,,
0.643,-0.3,,
0.644,-0.38,,
0.645,-0.36,,
0.646,-0.37,,
0.647,-0.37,,
0.648,-0.34,,
0.649,-0.07,,
0.65,0.49,,
0.651,0.76,,
0.652,0.58,,
0.653,0.31,,
0.654,0.18,,
0.655,0.1,,
0.656,0.03,,
0.657,-0.03,,
0.658,-0.06,,
0.659,-0.15,,
0.66,-0.4,,
0.661,-0.56,,
0.662,-0.48,,
0.663,-0.2,,
0.664,0.11,,
0.665,0.25,,
0.666,0.24,,
0.667,0.33,,
0.668,0.13,,
0.669,-0.21,,
0.67,-0.49,,
0.671,-0.59,,
0.672,-0.34,,
0.673,-0.13,,
0.674,-0.07,,
0.675,0.09,,
0.676,0.31,,
0.677,0.54,,
0.678,0.52,,
0.679,0.49,,
0.68,0.45,,
0.681,0.23,,
0.682,0.1,,
0.683,0.07,,
0.684,-0.01,,
0.685,-0.18,,
0.686,-0.31,,
0.687,-0.49,,
0.688,-0.37,,
0.689,-0.06,,
0.69,0.12,,
0.691,0.43,,
0.692,0.67,,
0.693,0.01,,
0.694,-0.61,,
0.695,-0.9,,
0.696,-0.95,,
0.697,-0.73,,
0.698,-0.41,,
0.699,0.22,,
0.7,0.7,,
0.701,0.59,,
0.702,0.35,,
0.703,0.23,,
0.704,0.11,,
0.705,0.29,,
0.706,0.42,,
0.707,0.23,,
0.708,0.13,,
0.709,0,,
0.71,0.07,,
0.711,0.08,,
0.712,0.02,,
0.713,0.14,,
0.714,0.03,,
0.715,-0.3,,
0.716,-0.53,,
0.717,-0.6,,
0.718,-0.58,,
0.719,-0.4,,
0.72,-0.04,,
0.721,0.11,,
0.722,0.12,,
0.723,-0.1,,
0.724,-0.28,,
0.725,-0.37,,
0.726,-0.21,,
0.727,0.2,,
0.728,0.27,,
0.729,0.37,,
0.73,0.44,,
0.731,0.15,,
0.732,-0.29,,
0.733,-0.66,,
0.734,-0.38,,
0.735,-0.25,,
0.736,-0.12,,
0.737,0.41,,
0.738,0.55,,
0.739,0.49,,
0.74,0.39,,
0.741,0.48,,
0.742,0.27,,
0.743,0.01,,
0.744,-0.18,,
0.745,-0.31,,
0.746,-0.25,,
0.747,-0.29,,
0.748,-0.28,,
0.749,-0.26,,
0.75,-0.31,,
0.751,-0.22,,
0.752,-0.16,,
0.753,-0.11,,
0.754,0.01,,
0.755,0.18,,
0.756,0.43,,
0.757,0.42,,
0.758,0.44,,
0.759,-0.17,,
0.76,-0.99,,
0.761,-1.29,,
0.762,-1.24,,
0.763,-1.17,,
0.764,-0.34,,
0.765,0.81,,
0.766,0.41,,
0.767,1.17,,
0.768,-0.15,,
0.769,-0.59,,
0.77,-0.47,,
0.771,-0.3,,
0.772,0.31,,
0.773,1.15,,
0.774,1.11,,
0.775,0.69,,
0.776,-0.15,,
0.777,-0.91,,
0.778,-0.95,,
0.779,-0.54,,
0.78,-0.11,,
0.781,0.23,,
0.782,0.4,,
0.783,0.24,,
0.784,-0.08,,
0.785,-0.2,,
0.786,-0.27,,
0.787,0.11,,
0.788,0.71,,
0.789,0.72,,
0.79,0.34,,
0.791,-0.07,,
0.792,-0.27,,
0.793,-0.19,,
0.794,-0.09,,
0.795,-0.02,,
0.796,-0.08,,
0.797,-0.24,,
0.798,-0.41,,
0.799,-0.25,,
0.8,0.21,,
0.801,0.68,,
0.802,0.5,,
0.803,0.2,,
0.804,0.09,,
0.805,0.13,,
0.806,0.11,,
0.807,-0.09,,
0.808,-0.18,,
0.809,-0.22,,
0.81,-0.32,,
0.811,-0.49,,
0.812,-0.24,,
0.813,-0.26,,
0.814,-0.39,,
0.815,-0.36,,
0.816,-0.04,,
0.817,0.07,,
0.818,0.15,,
0.819,-0.04,,
0.82,-0.24,,
0.821,-0.51,,
0.822,-0.56,,
0.823,-0.48,,
0.824,-0.57,,
0.825,-0.39,,
0.826,0.11,,
0.827,0.64,,
0.828,0.43,,
0.829,0.54,,
0.83,0.28,,
0.831,0.12,,
0.832,0.42,,
0.833,0.61,,
0.834,0.42,,
0.835,0.37,,
0.836,0.52,,
0.837,0.32,,
0.838,-0.12,,
0.839,-0.44,,
0.84,-0.57,,
0.841,-0.37,,
0.842,-0.17,,
0.843,0.05,,
0.844,-0.15,,
0.845,-0.36,,
0.846,-0.41,,
0.847,-0.32,,
0.848,-0.25,,
0.849,-0.1,,
0.85,0.41,,
0.851,0.79,,
0.852,0.2,,
0.853,-0.53,,
0.854,-0.66,,
0.855,-0.85,,
0.856,-0.48,,
0.857,0.01,,
0.858,-0.1,,
0.859,0.44,,
0.86,0.46,,
0.861,0.32,,
0.862,0.16,,
0.863,0.33,,
0.864,0.27,,
0.865,0.11,,
0.866,0.24,,
0.867,0.26,,
0.868,-0.03,,
0.869,-0.29,,
0.87,-0.22,,
0.871,-0.06,,
0.872,0.32,,
0.873,0.39,,
0.874,0.06,,
0.875,-0.07,,
0.876,-0.45,,
0.877,-0.5,,
0.878,-0.14,,
0.879,0.23,,
0.88,0.45,,
0.881,0.42,,
0.882,0.37,,
0.883,0.23,,
0.884,-0.12,,
0.885,-0.15,,
0.886,0.06,,
0.887,0.11,,
0.888,0.16,,
0.889,0.38,,
0.89,0.19,,
0.891,-0.12,,
0.892,-0.34,,
0.893,-0.45,,
0.894,-0.45,,
0.895,-0.35,,
0.896,-0.04,,
0.897,0.28,,
0.898,0.25,,
0.899,0.17,,
0.9,0.12,,
0.901,0.09,,
0.902,0.05,,
0.903,0.05,,
0.904,0.01,,
0.905,-0.08,,
0.906,-0.13,,
0.907,-0.16,,
0.908,-0.38,,
0.909,-0.49,,
0.91,-0.42,,
0.911,-0.27,,
0.912,-0.27,,
0.913,-0.32,,
0.914,0.04,,
0.915,0,,
0.916,-0.34,,
0.917,-0.47,,
0.918,-0.18,,
0.919,0.34,,
0.92,0.84,,
0.921,0.92,,
0.922,0.55,,
0.923,0.08,,
0.924,-0.58,,
0.925,-0.93,,
0.926,-0.88,,
0.927,-0.53,,
0.928,-0.01,,
0.929,0.37,,
0.93,0.8,,
0.931,0.64,,
0.932,0.24,,
0.933,0.03,,
0.934,-0.04,,
0.935,-0.02,,
0.936,0.19,,
0.937,0.32,,
0.938,0.34,,
0.939,0.4,,
0.94,0.39,,
0.941,0.23,,
0.942,0.18,,
0.943,0.09,,
0.944,0.04,,
0.945,0.02,,
0.946,0,,
0.947,-0.05,,
0.948,-0.04,,
0.949,-0.08,,
0.95,-0.09,,
0.951,-0.12,,
0.952,-0.14,,
0.953,-0.13,,
0.954,-0.11,,
0.955,-0.08,,
0.956,-0.16,,
0.957,-0.19,,
0.958,-0.09,,
0.959,-0.27,,
0.96,-0.31,,
0.961,-0.05,,
0.962,0.11,,
0.963,0.07,,
0.964,-0.03,,
0.965,-0.05,,
0.966,-0.43,,
0.967,-0.81,,
0.968,-1.01,,
0.969,-0.55,,
0.97,0.21,,
0.971,0.74,,
0.972,0.83,,
0.973,0.71,,
0.974,0.53,,
0.975,0.25,,
0.976,0.07,,
0.977,-0.11,,
0.978,-0.16,,
0.979,-0.12,,
0.98,-0.09,,
0.981,-0.08,,
0.982,-0.07,,
0.983,0.14,,
0.984,0.21,,
0.985,0.09,,
0.986,0.1,,
0.987,0.2,,
0.988,0.18,,
0.989,0.1,,
0.99,0.02,,
0.991,-0.01,,
0.992,-0.02,,
0.993,-0.08,,
0.994,-0.08,,
0.995,-0.11,,
0.996,-0.09,,
0.997,-0.06,,
0.998,-0.03,,
0.999,-0.04,,
1,-0.02,,
1.001,-0.02,,
1.002,-0.01,,
1.003,0.02,,
1.004,0.07,,
1.005,0.07,,
1.006,0.07,,
1.007,0.05,,
1.008,0.04,,
1.009,0.03,,
1.01,0,,
1.011,-0.01,,
1.012,-0.04,,
1.013,-0.08,,
1.014,-0.11,,
1.015,-0.11,,
1.016,-0.11,,
1.017,-0.1,,
1.018,-0.05,,
1.019,-0.02,,
1.02,0.02,,
1.021,0.06,,
1.022,0.05,,
1.023,0.01,,
1.024,0,,
1.025,0.02,,
1.026,0.03,,
1.027,0.05,,
1.028,0.04,,
1.029,0.04,,
1.03,0.04,,
1.031,0.04,,
1.032,-0.03,,
1.033,-0.09,,
1.034,-0.08,,
1.035,-0.09,,
1.036,-0.1,,
1.037,-0.06,,
1.038,-0.05,,
1.039,-0.04,,
1.04,-0.03,,
1.041,-0.02,,
1.042,0,,
1.043,0.04,,
1.044,0.03,,
1.045,0.07,,
1.046,0.06,,
1.047,0.09,,
1.048,0.09,,
1.049,0.06,,
1.05,0.04,,
1.051,0.01,,
1.052,-0.01,,
1.053,0,,
1.054,-0.01,,
1.055,0,,
1.056,-0.01,,
1.057,-0.05,,
1.058,-0.05,,
1.059,-0.06,,
1.06,-0.03,,
1.061,-0.01,,
1.062,0,,
1.063,0.01,,
1.064,0.01,,
1.065,0.03,,
1.066,0.04,,
1.067,0.06,,
1.068,0.1,,
1.069,0.15,,
1.07,0.12,,
1.071,0.11,,
1.072,0.08,,
1.073,0.07,,
1.074,0.04,,
1.075,0.02,,
1.076,-0.01,,
1.077,-0.02,,
1.078,-0.03,,
1.079,0.02,,
1.08,0.04,,
1.081,0.09,,
1.082,0.11,,
1.083,0.12,,
1.084,0.11,,
1.085,0.13,,
1.086,0.11,,
1.087,0.14,,
1.088,0.13,,
1.089,0.12,,
1.09,0.08,,
1.091,0.09,,
1.092,0.04,,
1.093,0.04,,
1.094,0.03,,
1.095,-0.03,,
1.096,0,,
1.097,0.02,,
1.098,0.04,,
1.099,0.05,,
1.1,0.01,,
1.101,0.01,,
1.102,0.05,,
1.103,0.1,,
1.104,0.09,,
1.105,0.11,,
1.106,0.11,,
1.107,0.1,,
1.108,0.07,,
1.109,0.09,,
1.11,0.07,,
1.111,0.07,,
1.112,0.05,,
1.113,0.03,,
1.114,0.02,,
1.115,0.01,,
1.116,-0.05,,
1.117,-0.04,,
1.118,-0.07,,
1.119,-0.06,,
1.12,0,,
1.121,0.02,,
1.122,0.06,,
1.123,0.09,,
1.124,0.08,,
1.125,0.09,,
1.126,0.09,,
1.127,0.09,,
1.128,0.1,,
1.129,0.07,,
1.13,0.06,,
1.131,0.04,,
1.132,0.04,,
1.133,0.03,,
1.134,-0.01,,
1.135,-0.04,,
1.136,-0.06,,
1.137,-0.09,,
1.138,-0.08,,
1.139,-0.06,,
1.14,-0.03,,
1.141,0.01,,
1.142,0.05,,
1.143,0.07,,
1.144,0.08,,
1.145,0.07,,
1.146,0.07,,
1.147,0.09,,
1.148,0.08,,
1.149,0.05,,
1.15,0.06,,
1.151,0.07,,
1.152,0.06,,
1.153,0.03,,
1.154,0,,
1.155,-0.04,,
1.156,-0.06,,
1.157,-0.07,,
1.158,-0.07,,
1.159,-0.07,,
1.16,-0.05,,
1.161,-0.04,,
1.162,-0.01,,
1.163,0.03,,
1.164,0.02,,
1.165,0,,
1.166,0,,
1.167,-0.03,,
1.168,-0.08,,
1.169,-0.16,,
1.17,-0.22,,
1.171,-0.18,,
1.172,-0.17,,
1.173,-0.07,,
1.174,0.08,,
1.175,0.28,,
1.176,0.45,,
1.177,0.39,,
1.178,0.2,,
1.179,0.06,,
1.18,0,,
1.181,0.01,,
1.182,0.03,,
1.183,-0.01,,
1.184,0.02,,
1.185,0,,
1.186,0.01,,
1.187,0.1,,
1.188,0.12,,
1.189,0.12,,
1.19,0.06,,
1.191,-0.03,,
1.192,-0.14,,
1.193,-0.25,,
1.194,-0.27,,
1.195,-0.12,,
1.196,0.01,,
1.197,-0.02,,
1.198,0,,
1.199,0.03,,
1.2,-0.02,,
1.201,-0.02,,
1.202,0.01,,
1.203,0.08,,
1.204,0.08,,
1.205,0.11,,
1.206,0.11,,
1.207,0.11,,
1.208,0.11,,
1.209,0.14,,
1.21,0.11,,
1.211,0.06,,
1.212,0.04,,
1.213,0.03,,
1.214,0.02,,
1.215,0.02,,
1.216,-0.05,,
1.217,-0.13,,
1.218,-0.19,,
1.219,-0.18,,
1.22,-0.14,,
1.221,-0.13,,
1.222,-0.05,,
1.223,0.05,,
1.224,0.07,,
1.225,0.03,,
1.226,0.02,,
1.227,0.04,,
1.228,0.06,,
1.229,0.08,,
1.23,0.09,,
1.231,0.1,,
1.232,0.08,,
1.233,0.06,,
1.234,0.04,,
1.235,0.02,,
1.236,0,,
1.237,-0.02,,
1.238,-0.06,,
1.239,-0.09,,
1.24,-0.11,,
1.241,-0.11,,
1.242,-0.07,,
1.243,-0.05,,
1.244,-0.02,,
1.245,0,,
1.246,0.04,,
1.247,0.04,,
1.248,0.01,,
1.249,0.02,,
1.25,0.02,,
1.251,0.01,,
1.252,0.03,,
1.253,0.03,,
1.254,0.04,,
1.255,0.08,,
1.256,0.01,,
1.257,0,,
1.258,-0.04,,
1.259,-0.06,,
1.26,-0.09,,
1.261,-0.11,,
1.262,-0.08,,
1.263,-0.04,,
1.264,-0.02,,
1.265,0.02,,
1.266,0.02,,
1.267,0.05,,
1.268,0.05,,
1.269,0.04,,
1.27,0.03,,
1.271,0.04,,
1.272,0.04,,
1.273,0.07,,
1.274,0.05,,
1.275,0.03,,
1.276,0,,
1.277,-0.01,,
1.278,-0.04,,
1.279,-0.08,,
1.28,-0.09,,
1.281,-0.08,,
1.282,-0.06,,
1.283,-0.07,,
1.284,-0.04,,
1.285,-0.01,,
1.286,0.01,,
1.287,0.03,,
1.288,0.06,,
1.289,0.07,,
1.29,0.07,,
1.291,0.07,,
1.292,0.08,,
1.293,0.07,,
1.294,0.06,,
1.295,0.04,,
1.296,-0.01,,
1.297,-0.05,,
1.298,-0.13,,
1.299,-0.17,,
1.3,-0.21,,
1.301,-0.21,,
1.302,-0.15,,
1.303,-0.04,,
1.304,0.06,,
1.305,0.12,,
1.306,0.11,,
1.307,0.11,,
1.308,0.11,,
1.309,0.1,,
1.31,0.11,,
1.311,0.07,,
1.312,0.05,,
1.313,0.05,,
1.314,0.05,,
1.315,0.05,,
1.316,0.01,,
1.317,0,,
1.318,-0.04,,
1.319,-0.09,,
1.32,-0.14,,
1.321,-0.16,,
1.322,-0.23,,
1.323,-0.26,,
1.324,-0.24,,
1.325,-0.15,,
1.326,-0.06,,
1.327,0.1,,
1.328,0.22,,
1.329,0.32,,
1.33,0.23,,
1.331,0.12,,
1.332,0.07,,
1.333,0.07,,
1.334,0.11,,
1.335,0.12,,
1.336,0.1,,
1.337,0.06,,
1.338,0.02,,
1.339,0,,
1.34,-0.04,,
1.341,-0.08,,
1.342,-0.1,,
1.343,-0.12,,
1.344,-0.09,,
1.345,-0.05,,
1.346,-0.03,,
1.347,0.01,,
1.348,0.02,,
1.349,0.03,,
1.35,0.02,,
1.351,0.05,,
1.352,0.08,,
1.353,0.05,,
1.354,0.04,,
1.355,0.05,,
1.356,0.02,,
1.357,0.01,,
1.358,-0.02,,
1.359,-0.02,,
1.36,-0.03,,
1.361,-0.05,,
1.362,-0.07,,
1.363,-0.07,,
1.364,-0.04,,
1.365,-0.08,,
1.366,-0.06,,
1.367,-0.05,,
1.368,0.01,,
1.369,0.06,,
1.37,0.07,,
1.371,0.07,,
1.372,0.04,,
1.373,0.01,,
1.374,0.02,,
1.375,0.04,,
1.376,0.04,,
1.377,0.05,,
1.378,0.03,,
1.379,0,,
1.38,-0.03,,
1.381,-0.07,,
1.382,-0.07,,
1.383,-0.08,,
1.384,-0.09,,
1.385,-0.08,,
1.386,-0.06,,
1.387,-0.02,,
1.388,0.01,,
1.389,0.02,,
1.39,0.06,,
1.391,0.06,,
1.392,0.03,,
1.393,0.06,,
1.394,0.05,,
1.395,0.06,,
1.396,0.05,,
1.397,0.05,,
1.398,0.04,,
1.399,0.01,,
1.4,-0.02,,
1.401,-0.03,,
1.402,-0.04,,
1.403,-0.07,,
1.404,-0.09,,
1.405,-0.09,,
1.406,-0.08,,
1.407,-0.04,,
1.408,-0.01,,
1.409,0.01,,
1.41,0.05,,
1.411,0.07,,
1.412,0.04,,
1.413,0.05,,
1.414,0.04,,
1.415,0.03,,
1.416,0,,
1.417,-0.02,,
1.418,-0.05,,
1.419,-0.08,,
1.42,-0.1,,
1.421,-0.12,,
1.422,-0.14,,
1.423,-0.1,,
1.424,-0.02,,
1.425,0.05,,
1.426,0.08,,
1.427,0.06,,
1.428,0.1,,
1.429,0.11,,
1.43,0.09,,
1.431,0.08,,
1.432,0.07,,
1.433,0.04,,
1.434,0.06,,
1.435,0.04,,
1.436,0.04,,
1.437,0.05,,
1.438,0.03,,
1.439,0.04,,
1.44,-0.01,,
1.441,-0.01,,
1.442,-0.07,,
1.443,-0.1,,
1.444,-0.1,,
1.445,-0.09,,
1.446,-0.07,,
1.447,-0.05,,
1.448,-0.02,,
1.449,0.01,,
1.45,-0.02,,
1.451,-0.07,,
1.452,-0.14,,
1.453,-0.2,,
1.454,-0.14,,
1.455,-0.06,,
1.456,0.06,,
1.457,0.15,,
1.458,0.23,,
1.459,0.22,,
1.46,0.17,,
1.461,0.1,,
1.462,0.08,,
1.463,0,,
1.464,-0.03,,
1.465,-0.04,,
1.466,-0.06,,
1.467,-0.07,,
1.468,-0.05,,
1.469,-0.03,,
1.47,-0.01,,
1.471,0.02,,
1.472,0.03,,
1.473,0.01,,
1.474,0.05,,
1.475,0.02,,
1.476,0.05,,
1.477,0.05,,
1.478,0.05,,
1.479,0.06,,
1.48,0.04,,
1.481,0.02,,
1.482,0,,
1.483,-0.03,,
1.484,-0.07,,
1.485,-0.11,,
1.486,-0.11,,
1.487,-0.1,,
1.488,-0.1,,
1.489,-0.08,,
1.49,-0.07,,
1.491,-0.05,,
1.492,-0.04,,
1.493,-0.05,,
1.494,-0.05,,
1.495,-0.04,,
1.496,-0.04,,
1.497,0.01,,
1.498,0.13,,
1.499,0.27,,
1.5,0.23,,
1.501,0.11,,
1.502,0.04,,
1.503,0.02,,
1.504,-0.03,,
1.505,-0.05,,
1.506,-0.04,,
1.507,-0.07,,
1.508,-0.04,,
1.509,-0.03,,
1.51,-0.02,,
1.511,-0.06,,
1.512,0.01,,
1.513,0,,
1.514,0.02,,
1.515,-0.05,,
1.516,-0.14,,
1.517,-0.23,,
1.518,-0.32,,
1.519,-0.34,,
1.52,-0.38,,
1.521,-0.23,,
1.522,0,,
1.523,0.09,,
1.524,0.09,,
1.525,0.2,,
1.526,0.28,,
1.527,0.25,,
1.528,0.16,,
1.529,0.16,,
1.53,0.24,,
1.531,0.12,,
1.532,0.06,,
1.533,0.02,,
1.534,-0.09,,
1.535,-0.27,,
1.536,-0.61,,
1.537,-0.9,,
1.538,-0.96,,
1.539,-0.76,,
1.54,-0.39,,
1.541,0.32,,
1.542,0.72,,
1.543,0.5,,
1.544,0.25,,
1.545,0.26,,
1.546,0.29,,
1.547,0.1,,
1.548,-0.21,,
1.549,-0.67,,
1.55,-0.95,,
1.551,-0.99,,
1.552,-0.71,,
1.553,-0.26,,
1.554,0.75,,
1.555,1.57,,
1.556,1.57,,
1.557,1,,
1.558,0.48,,
1.559,0.28,,
1.56,0.21,,
1.561,0.05,,
1.562,-0.18,,
1.563,-0.31,,
1.564,-0.49,,
1.565,-0.69,,
1.566,-0.6,,
1.567,-0.19,,
1.568,0.53,,
1.569,0.84,,
1.57,0.7,,
1.571,0.47,,
1.572,0.28,,
1.573,0.19,,
1.574,0.1,,
1.575,-0.04,,
1.576,-0.13,,
1.577,-0.1,,
1.578,-0.01,,
1.579,0.02,,
1.58,0.08,,
1.581,-0.09,,
1.582,-0.27,,
1.583,-0.34,,
1.584,-0.24,,
1.585,-0.16,,
1.586,-0.17,,
1.587,-0.09,,
1.588,-0.09,,
1.589,-0.3,,
1.59,-0.45,,
1.591,-0.39,,
1.592,-0.48,,
1.593,-0.46,,
1.594,-0.11,,
1.595,0.35,,
1.596,0.57,,
1.597,0.56,,
1.598,0.38,,
1.599,0.16,,
1.6,-0.07,,
1.601,-0.14,,
1.602,-0.11,,
1.603,-0.02,,
1.604,0.1,,
1.605,0.27,,
1.606,0.24,,
1.607,-0.12,,
1.608,-0.1,,
1.609,0.05,,
1.61,0.04,,
1.611,0.09,,
1.612,0.25,,
1.613,0.27,,
1.614,0.23,,
1.615,0.13,,
1.616,-0.12,,
1.617,-0.25,,
1.618,-0.32,,
1.619,-0.42,,
1.62,-0.54,,
1.621,-0.4,,
1.622,-0.09,,
1.623,0.22,,
1.624,0.24,,
1.625,0.12,,
1.626,0.29,,
1.627,0.26,,
1.628,0.23,,
1.629,0.09,,
1.63,-0.29,,
1.631,-0.31,,
1.632,-0.16,,
1.633,-0.07,,
1.634,-0.05,,
1.635,-0.04,,
1.636,-0.1,,
1.637,-0.16,,
1.638,-0.2,,
1.639,-0.11,,
1.64,0.03,,
1.641,-0.03,,
1.642,0.11,,
1.643,0.32,,
1.644,0.32,,
1.645,0.4,,
1.646,0.42,,
1.647,0.29,,
1.648,0.27,,
1.649,0.11,,
1.65,0,,
1.651,-0.03,,
1.652,-0.28,,
1.653,-0.43,,
1.654,-0.4,,
1.655,-0.58,,
1.656,-0.6,,
1.657,-0.43,,
1.658,-0.33,,
1.659,-0.11,,
1.66,-0.01,,
1.661,0.26,,
1.662,0.08,,
1.663,-0.05,,
1.664,0.28,,
1.665,0.44,,
1.666,0.03,,
1.667,-0.25,,
1.668,-0.21,,
1.669,0,,
1.67,0.11,,
1.671,0.01,,
1.672,-0.13,,
1.673,0.13,,
1.674,0.06,,
1.675,0.05,,
1.676,0.13,,
1.677,0.18,,
1.678,0.25,,
1.679,0.32,,
1.68,0.34,,
1.681,0.16,,
1.682,-0.26,,
1.683,-0.87,,
1.684,-1.25,,
1.685,-1.16,,
1.686,-0.56,,
1.687,0.06,,
1.688,0.04,,
1.689,0.03,,
1.69,0.13,,
1.691,0.26,,
1.692,0.21,,
1.693,0.1,,
1.694,0.27,,
1.695,0.39,,
1.696,0.29,,
1.697,0.22,,
1.698,0.25,,
1.699,0.26,,
1.7,0.31,,
1.701,0.2,,
1.702,0.06,,
1.703,0.05,,
1.704,0.16,,
1.705,0.11,,
1.706,-0.23,,
1.707,-0.43,,
1.708,-0.5,,
1.709,-0.43,,
1.71,-0.19,,
1.711,0.26,,
1.712,-0.18,,
1.713,-0.37,,
1.714,-0.16,,
1.715,-0.03,,
1.716,-0.49,,
1.717,-0.64,,
1.718,-0.21,,
1.719,0.01,,
1.72,-0.01,,
1.721,-0.53,,
1.722,-0.73,,
1.723,-0.11,,
1.724,-0.05,,
1.725,-0.09,,
1.726,0.38,,
1.727,0.83,,
1.728,1.01,,
1.729,0.54,,
1.73,0.24,,
1.731,0.27,,
1.732,0.42,,
1.733,0.46,,
1.734,0.34,,
1.735,0.13,,
1.736,0.03,,
1.737,-0.01,,
1.738,0.04,,
1.739,-0.05,,
1.74,-0.29,,
1.741,-0.37,,
1.742,-0.21,,
1.743,0,,
1.744,0.06,,
1.745,0.18,,
1.746,0.16,,
1.747,-0.2,,
1.748,-0.52,,
1.749,-0.82,,
1.75,-0.88,,
1.751,-0.21,,
1.752,0.43,,
1.753,0.6,,
1.754,0.3,,
1.755,0.15,,
1.756,0.17,,
1.757,0.21,,
1.758,0.18,,
1.759,0.15,,
1.76,0.09,,
1.761,-0.08,,
1.762,-0.14,,
1.763,-0.08,,
1.764,0,,
1.765,0.07,,
1.766,-0.06,,
1.767,-0.2,,
1.768,-0.26,,
1.769,-0.25,,
1.77,-0.41,,
1.771,-0.51,,
1.772,-0.53,,
1.773,-0.69,,
1.774,-0.65,,
1.775,-0.19,,
1.776,0.15,,
1.777,0.41,,
1.778,0.77,,
1.779,0.79,,
1.78,0.53,,
1.781,0.39,,
1.782,0.2,,
1.783,0.12,,
1.784,0.24,,
1.785,0.27,,
1.786,0.39,,
1.787,0.07,,
1.788,-0.46,,
1.789,-1.14,,
1.79,-1.38,,
1.791,-0.9,,
1.792,-0.29,,
1.793,0.24,,
1.794,0.68,,
1.795,1.27,,
1.796,0.25,,
1.797,-0.46,,
1.798,-0.64,,
1.799,-0.51,,
1.8,0.03,,
1.801,0.46,,
1.802,0.55,,
1.803,0.19,,
1.804,0.06,,
1.805,0.12,,
1.806,0.24,,
1.807,0.2,,
1.808,0.02,,
1.809,-0.01,,
1.81,-0.09,,
1.811,-0.22,,
1.812,-0.36,,
1.813,-0.11,,
1.814,0.18,,
1.815,-0.05,,
1.816,0.03,,
1.817,0.6,,
1.818,0.41,,
1.819,-0.05,,
1.82,-0.29,,
1.821,-0.2,,
1.822,-0.14,,
1.823,-0.12,,
1.824,-0.17,,
1.825,-0.11,,
1.826,0.14,,
1.827,0.58,,
1.828,0.53,,
1.829,-0.1,,
1.83,-0.54,,
1.831,-0.9,,
1.832,-1.22,,
1.833,-0.91,,
1.834,-0.14,,
1.835,-0.09,,
1.836,0.49,,
1.837,0.67,,
1.838,0.43,,
1.839,0.32,,
1.84,0.08,,
1.841,0.17,,
1.842,0.33,,
1.843,0.39,,
1.844,0.34,,
1.845,0.23,,
1.846,0.35,,
1.847,0.4,,
1.848,0.21,,
1.849,0.07,,
1.85,0.01,,
1.851,-0.03,,
1.852,-0.07,,
1.853,-0.1,,
1.854,-0.15,,
1.855,-0.14,,
1.856,-0.13,,
1.857,-0.11,,
1.858,-0.11,,
1.859,-0.17,,
1.86,-0.16,,
1.861,-0.13,,
1.862,-0.12,,
1.863,-0.07,,
1.864,0,,
1.865,0.07,,
1.866,0.11,,
1.867,-0.01,,
1.868,-0.15,,
1.869,-0.19,,
1.87,-0.14,,
1.871,-0.19,,
1.872,-0.13,,
1.873,-0.37,,
1.874,-0.4,,
1.875,-0.05,,
1.876,0.05,,
1.877,0.08,,
1.878,-0.21,,
1.879,-0.13,,
1.88,-0.13,,
1.881,-0.09,,
1.882,0,,
1.883,0.28,,
1.884,0.44,,
1.885,0.39,,
1.886,0.28,,
1.887,-0.08,,
1.888,-0.23,,
1.889,-0.35,,
1.89,-0.21,,
1.891,0.1,,
1.892,0.05,,
1.893,-0.27,,
1.894,-0.63,,
1.895,-0.64,,
1.896,-0.47,,
1.897,-0.26,,
1.898,0.48,,
1.899,0.55,,
1.9,0.45,,
1.901,0.55,,
1.902,0.14,,
1.903,-0.05,,
1.904,0.36,,
1.905,0.47,,
1.906,0.37,,
1.907,0.47,,
1.908,0.35,,
1.909,0.01,,
1.91,-0.15,,
1.911,-0.18,,
1.912,-0.05,,
1.913,0.03,,
1.914,-0.15,,
1.915,-0.28,,
1.916,-0.26,,
1.917,-0.08,,
1.918,0.13,,
1.919,0.19,,
1.92,0.32,,
1.921,0.34,,
1.922,0.01,,
1.923,-0.31,,
1.924,-0.54,,
1.925,-0.43,,
1.926,-0.08,,
1.927,0.2,,
1.928,0.45,,
1.929,0.5,,
1.93,0.27,,
1.931,0.08,,
1.932,-0.1,,
1.933,-0.23,,
1.934,-0.17,,
1.935,-0.06,,
1.936,-0.03,,
1.937,-0.05,,
1.938,-0.03,,
1.939,0.06,,
1.94,-0.08,,
1.941,-0.28,,
1.942,-0.36,,
1.943,-0.39,,
1.944,-0.33,,
1.945,-0.09,,
1.946,0.08,,
1.947,-0.1,,
1.948,-0.25,,
1.949,-0.16,,
1.95,0.17,,
1.951,0.43,,
1.952,0.31,,
1.953,-0.38,,
1.954,-0.55,,
1.955,-0.27,,
1.956,-0.08,,
1.957,0.03,,
1.958,0.39,,
1.959,0.47,,
1.96,0.45,,
1.961,0.42,,
1.962,0.28,,
1.963,0.04,,
1.964,-0.03,,
1.965,-0.04,,
1.966,0.03,,
1.967,0.05,,
1.968,-0.23,,
1.969,-0.42,,
1.97,-0.44,,
1.971,-0.39,,
1.972,-0.53,,
1.973,-0.81,,
1.974,-0.04,,
1.975,0.59,,
1.976,0.71,,
1.977,0.75,,
1.978,0.55,,
1.979,0.22,,
1.98,0.13,,
1.981,-0.06,,
1.982,0.12,,
1.983,0.3,,
1.984,0.21,,
1.985,0.03,,
1.986,0.03,,
1.987,0.05,,
1.988,0.07,,
1.989,0.03,,
1.99,0,,
1.991,-0.01,,
1.992,-0.03,,
1.993,-0.05,,
1.994,-0.08,,
1.995,-0.11,,
1.996,-0.14,,
1.997,-0.17,,
1.998,-0.16,,
1.999,-0.1,,
2,-0.04,,
2.001,0.03,,
2.002,-0.07,,
2.003,-0.19,,
2.004,-0.22,,
2.005,-0.27,,
2.006,-0.31,,
2.007,-0.43,,
2.008,-0.34,,
2.009,-0.1,,
2.01,-0.05,,
2.011,-0.31,,
2.012,-0.43,,
2.013,-0.48,,
2.014,0.14,,
2.015,0.82,,
2.016,1.03,,
2.017,0.6,,
2.018,0.27,,
2.019,0.24,,
2.02,0.16,,
2.021,0.14,,
2.022,0.18,,
2.023,0.04,,
2.024,0.03,,
2.025,0.12,,
2.026,0.14,,
2.027,0.02,,
2.028,-0.08,,
2.029,-0.18,,
2.03,-0.24,,
2.031,-0.4,,
2.032,-0.36,,
2.033,-0.01,,
2.034,0.34,,
2.035,0.24,,
2.036,0.1,,
2.037,0.04,,
2.038,-0.03,,
2.039,-0.07,,
2.04,-0.06,,
2.041,-0.06,,
2.042,-0.04,,
2.043,-0.01,,
2.044,0,,
2.045,0,,
2.046,-0.08,,
2.047,-0.07,,
2.048,-0.04,,
2.049,0.01,,
2.05,0.14,,
2.051,0.14,,
2.052,0.16,,
2.053,-0.01,,
2.054,-0.11,,
2.055,-0.14,,
2.056,-0.13,,
2.057,-0.15,,
2.058,-0.16,,
2.059,-0.11,,
2.06,-0.08,,
2.061,-0.01,,
2.062,0,,
2.063,0.01,,
2.064,0.01,,
2.065,0.08,,
2.066,0.09,,
2.067,0.08,,
2.068,0.04,,
2.069,0.04,,
2.07,0.1,,
2.071,0.12,,
2.072,0.16,,
2.073,0.14,,
2.074,0.07,,
2.075,0,,
2.076,-0.05,,
2.077,-0.08,,
2.078,-0.09,,
2.079,-0.08,,
2.08,-0.04,,
2.081,-0.02,,
2.082,-0.03,,
2.083,0,,
2.084,-0.02,,
2.085,0.01,,
2.086,0,,
2.087,0.01,,
2.088,0.02,,
2.089,0.01,,
2.09,-0.01,,
2.091,-0.01,,
2.092,-0.03,,
2.093,0,,
2.094,0.04,,
2.095,0.06,,
2.096,0.04,,
2.097,0.03,,
2.098,-0.04,,
2.099,-0.11,,
2.1,-0.19,,
2.101,-0.15,,
2.102,-0.09,,
2.103,0,,
2.104,0.04,,
2.105,0.04,,
2.106,0.06,,
2.107,0.1,,
2.108,0.07,,
2.109,0.09,,
2.11,0.11,,
2.111,0.09,,
2.112,0.09,,
2.113,0.01,,
2.114,-0.05,,
2.115,-0.05,,
2.116,-0.02,,
2.117,-0.03,,
2.118,-0.04,,
2.119,-0.06,,
2.12,-0.11,,
2.121,-0.12,,
2.122,-0.11,,
2.123,-0.08,,
2.124,-0.1,,
2.125,-0.03,,
2.126,0.04,,
2.127,0.09,,
2.128,0.12,,
2.129,0.13,,
2.13,0.14,,
2.131,0.11,,
2.132,0.11,,
2.133,0.16,,
2.134,0.12,,
2.135,0.11,,
2.136,0.1,,
2.137,0.1,,
2.138,0.05,,
2.139,-0.02,,
2.14,-0.05,,
2.141,-0.04,,
2.142,-0.06,,
2.143,-0.02,,
2.144,0.03,,
2.145,0.06,,
2.146,0.11,,
2.147,0.13,,
2.148,0.17,,
2.149,0.15,,
2.15,0.13,,
2.151,0.13,,
2.152,0.1,,
2.153,0.14,,
2.154,0.12,,
2.155,0.11,,
2.156,0.09,,
2.157,0.07,,
2.158,0.04,,
2.159,0,,
2.16,-0.02,,
2.161,-0.03,,
2.162,-0.03,,
2.163,-0.03,,
2.164,0.01,,
2.165,0.06,,
2.166,0.08,,
2.167,0.11,,
2.168,0.11,,
2.169,0.11,,
2.17,0.1,,
2.171,0.1,,
2.172,0.13,,
2.173,0.13,,
2.174,0.1,,
2.175,0.09,,
2.176,0.07,,
2.177,0.07,,
2.178,0.03,,
2.179,-0.01,,
2.18,-0.02,,
2.181,-0.02,,
2.182,-0.04,,
2.183,-0.04,,
2.184,-0.03,,
2.185,0.01,,
2.186,0.04,,
2.187,0.06,,
2.188,0.1,,
2.189,0.11,,
2.19,0.09,,
2.191,0.1,,
2.192,0.07,,
2.193,0.07,,
2.194,0.1,,
2.195,0.08,,
2.196,0.07,,
2.197,0.06,,
2.198,0.02,,
2.199,-0.01,,
2.2,-0.04,,
2.201,-0.05,,
2.202,-0.07,,
2.203,-0.06,,
2.204,-0.06,,
2.205,-0.03,,
2.206,0,,
2.207,0.03,,
2.208,0.05,,
2.209,0.05,,
2.21,0.05,,
2.211,0.06,,
2.212,0.08,,
2.213,0.05,,
2.214,0.07,,
2.215,0.05,,
2.216,0.05,,
2.217,0.06,,
2.218,0.01,,
2.219,-0.02,,
2.22,-0.04,,
2.221,-0.08,,
2.222,-0.1,,
2.223,-0.09,,
2.224,-0.04,,
2.225,-0.03,,
2.226,0.03,,
2.227,0.06,,
2.228,0.04,,
2.229,0.04,,
2.23,0.06,,
2.231,0.1,,
2.232,0.05,,
2.233,0.02,,
2.234,0.02,,
2.235,0,,
2.236,0,,
2.237,0.04,,
2.238,0.05,,
2.239,0.04,,
2.24,0.04,,
2.241,0,,
2.242,-0.05,,
2.243,-0.12,,
2.244,-0.21,,
2.245,-0.19,,
2.246,-0.1,,
2.247,-0.05,,
2.248,-0.07,,
2.249,-0.1,,
2.25,-0.18,,
2.251,-0.23,,
2.252,-0.23,,
2.253,-0.19,,
2.254,-0.02,,
2.255,0.22,,
2.256,0.5,,
2.257,0.46,,
2.258,0.3,,
2.259,0.22,,
2.26,0.17,,
2.261,0.13,,
2.262,0.07,,
2.263,0.05,,
2.264,-0.01,,
2.265,-0.03,,
2.266,-0.04,,
2.267,-0.02,,
2.268,0,,
2.269,0.01,,
2.27,0.03,,
2.271,0.02,,
2.272,0.02,,
2.273,0.03,,
2.274,0.03,,
2.275,0.03,,
2.276,0.02,,
2.277,0.01,,
2.278,-0.02,,
2.279,-0.03,,
2.28,-0.05,,
2.281,-0.03,,
2.282,-0.06,,
2.283,-0.1,,
2.284,-0.1,,
2.285,-0.06,,
2.286,-0.09,,
2.287,-0.08,,
2.288,-0.03,,
2.289,0,,
2.29,0.04,,
2.291,0.02,,
2.292,0.03,,
2.293,0.03,,
2.294,0.08,,
2.295,0.06,,
2.296,0.06,,
2.297,0.05,,
2.298,0.02,,
2.299,0.02,,
2.3,-0.01,,
2.301,0,,
2.302,-0.05,,
2.303,-0.07,,
2.304,-0.04,,
2.305,-0.09,,
2.306,-0.11,,
2.307,-0.1,,
2.308,-0.05,,
2.309,0.01,,
2.31,0,,
2.311,0.01,,
2.312,-0.03,,
2.313,-0.05,,
2.314,-0.09,,
2.315,-0.08,,
2.316,-0.08,,
2.317,-0.02,,
2.318,0.07,,
2.319,0.14,,
2.32,0.18,,
2.321,0.14,,
2.322,0.1,,
2.323,0.08,,
2.324,0,,
2.325,-0.06,,
2.326,-0.05,,
2.327,-0.04,,
2.328,-0.01,,
2.329,-0.01,,
2.33,0,,
2.331,0.05,,
2.332,0.05,,
2.333,0.03,,
2.334,0.06,,
2.335,0.05,,
2.336,0.04,,
2.337,0.05,,
2.338,0.04,,
2.339,0.04,,
2.34,0.02,,
2.341,0,,
2.342,-0.03,,
2.343,-0.06,,
2.344,-0.1,,
2.345,-0.09,,
2.346,-0.11,,
2.347,-0.1,,
2.348,-0.06,,
2.349,-0.03,,
2.35,0,,
2.351,0.01,,
2.352,0.06,,
2.353,0.06,,
2.354,0.03,,
2.355,0.05,,
2.356,0.07,,
2.357,0.08,,
2.358,0.04,,
2.359,0.06,,
2.36,0.02,,
2.361,0.03,,
2.362,0,,
2.363,-0.02,,
2.364,-0.06,,
2.365,-0.08,,
2.366,-0.1,,
2.367,-0.1,,
2.368,-0.07,,
2.369,-0.05,,
2.37,-0.02,,
2.371,0,,
2.372,0.06,,
2.373,0.07,,
2.374,0.06,,
2.375,0.06,,
2.376,0.07,,
2.377,0.09,,
2.378,0.06,,
2.379,0.05,,
2.38,0.04,,
2.381,0.02,,
2.382,0,,
2.383,-0.03,,
2.384,-0.05,,
2.385,-0.09,,
2.386,-0.08,,
2.387,-0.08,,
2.388,-0.08,,
2.389,-0.07,,
2.39,-0.01,,
2.391,-0.01,,
2.392,0.01,,
2.393,0.01,,
2.394,0,,
2.395,-0.02,,
2.396,-0.05,,
2.397,-0.01,,
2.398,-0.02,,
2.399,-0.01,,
2.4,0,,
2.401,0,,
2.402,-0.07,,
2.403,-0.04,,
2.404,0.08,,
2.405,0.1,,
2.406,0.07,,
2.407,0.03,,
2.408,0.03,,
2.409,0.05,,
2.41,0.02,,
2.411,0.02,,
2.412,0.03,,
2.413,0.07,,
2.414,0.05,,
2.415,0.03,,
2.416,0.01,,
2.417,0.02,,
2.418,0,,
2.419,-0.06,,
2.42,-0.11,,
2.421,-0.21,,
2.422,-0.25,,
2.423,-0.23,,
2.424,-0.21,,
2.425,-0.19,,
2.426,-0.11,,
2.427,0.07,,
2.428,0.27,,
2.429,0.21,,
2.43,0.15,,
2.431,0.16,,
2.432,0.14,,
2.433,0.14,,
2.434,0.12,,
2.435,0.09,,
2.436,0.07,,
2.437,0.09,,
2.438,0.05,,
2.439,0.04,,
2.44,0.05,,
2.441,0.02,,
2.442,0.01,,
2.443,-0.04,,
2.444,-0.08,,
2.445,-0.04,,
2.446,-0.06,,
2.447,-0.11,,
2.448,-0.06,,
2.449,-0.06,,
2.45,-0.02,,
2.451,-0.01,,
2.452,0.01,,
2.453,0.05,,
2.454,0.05,,
2.455,0.05,,
2.456,-0.01,,
2.457,-0.02,,
2.458,0.05,,
2.459,0.08,,
2.46,0.05,,
2.461,0.04,,
2.462,0.04,,
2.463,0.02,,
2.464,0,,
2.465,-0.02,,
2.466,-0.08,,
2.467,-0.1,,
2.468,-0.1,,
2.469,-0.11,,
2.47,-0.09,,
2.471,-0.07,,
2.472,-0.04,,
2.473,-0.01,,
2.474,0.03,,
2.475,0.05,,
2.476,0.05,,
2.477,0.04,,
2.478,0.07,,
2.479,0.04,,
2.48,0.05,,
2.481,0.05,,
2.482,0.07,,
2.483,0.04,,
2.484,0,,
2.485,-0.02,,
2.486,-0.05,,
2.487,-0.08,,
2.488,-0.1,,
2.489,-0.1,,
2.49,-0.08,,
2.491,-0.06,,
2.492,-0.04,,
2.493,-0.01,,
2.494,0.01,,
2.495,0.04,,
2.496,0.04,,
2.497,0.04,,
2.498,0.06,,
2.499,0.07,,
2.5,0.06,,
2.501,0.04,,
2.502,0.04,,
2.503,0.04,,
2.504,0.03,,
2.505,0,,
2.506,-0.03,,
2.507,-0.05,,
2.508,-0.08,,
2.509,-0.09,,
2.51,-0.08,,
2.511,-0.09,,
2.512,-0.07,,
2.513,-0.05,,
2.514,-0.02,,
2.515,0.04,,
2.516,0.07,,
2.517,0.05,,
2.518,0.09,,
2.519,0.13,,
2.52,0.11,,
2.521,0.07,,
2.522,0.03,,
2.523,0.02,,
2.524,-0.05,,
2.525,-0.09,,
2.526,-0.13,,
2.527,-0.23,,
2.528,-0.33,,
2.529,-0.37,,
2.53,-0.27,,
2.531,-0.13,,
2.532,0.01,,
2.533,0.03,,
2.534,-0.05,,
2.535,0,,
2.536,0.24,,
2.537,0.4,,
2.538,0.41,,
2.539,0.28,,
2.54,0.2,,
2.541,0.14,,
2.542,0.11,,
2.543,0.12,,
2.544,0.08,,
2.545,0.03,,
2.546,-0.15,,
2.547,-0.19,,
2.548,-0.21,,
2.549,-0.21,,
2.55,-0.29,,
2.551,-0.34,,
2.552,-0.32,,
2.553,-0.34,,
2.554,-0.42,,
2.555,-0.36,,
2.556,-0.32,,
2.557,-0.41,,
2.558,-0.41,,
2.559,-0.23,,
2.56,0.18,,
2.561,0.52,,
2.562,0.67,,
2.563,0.63,,
2.564,0.57,,
2.565,0.64,,
2.566,0.51,,
2.567,0.44,,
2.568,0.24,,
2.569,0,,
2.57,-0.28,,
2.571,-0.48,,
2.572,-0.65,,
2.573,-0.77,,
2.574,-0.75,,
2.575,-0.48,,
2.576,0.06,,
2.577,0.18,,
2.578,0.42,,
2.579,0.57,,
2.58,0.57,,
2.581,0.56,,
2.582,0.42,,
2.583,0.22,,
2.584,0.09,,
2.585,-0.06,,
2.586,-0.07,,
2.587,-0.1,,
2.588,-0.22,,
2.589,-0.17,,
2.59,-0.15,,
2.591,-0.24,,
2.592,-0.36,,
2.593,-0.49,,
2.594,-0.67,,
2.595,-0.59,,
2.596,-0.24,,
2.597,0.23,,
2.598,0.58,,
2.599,0.65,,
2.6,0.44,,
2.601,0.15,,
2.602,0.26,,
2.603,0.47,,
2.604,0.51,,
2.605,0.5,,
2.606,0.32,,
2.607,0.17,,
2.608,0.11,,
2.609,0.06,,
2.61,-0.03,,
2.611,-0.12,,
2.612,-0.31,,
2.613,-0.46,,
2.614,-0.68,,
2.615,-0.78,,
2.616,-0.77,,
2.617,-0.48,,
2.618,-0.18,,
2.619,0.3,,
2.62,0.46,,
2.621,0.37,,
2.622,0.39,,
2.623,0.29,,
2.624,0.29,,
2.625,0.18,,
2.626,0.02,,
2.627,-0.14,,
2.628,-0.17,,
2.629,-0.27,,
2.63,-0.29,,
2.631,-0.26,,
2.632,-0.17,,
2.633,0.22,,
2.634,0.13,,
2.635,-0.07,,
2.636,0.15,,
2.637,0.25,,
2.638,0.21,,
2.639,0.07,,
2.64,0.18,,
2.641,0.22,,
2.642,0.1,,
2.643,-0.09,,
2.644,-0.27,,
2.645,-0.65,,
2.646,-0.59,,
2.647,-0.22,,
2.648,0.53,,
2.649,0.68,,
2.65,0.21,,
2.651,0.07,,
2.652,0.11,,
2.653,0.09,,
2.654,-0.01,,
2.655,0.01,,
2.656,0.04,,
2.657,0.05,,
2.658,0.05,,
2.659,-0.17,,
2.66,-0.57,,
2.661,-0.65,,
2.662,-0.42,,
2.663,0,,
2.664,0.17,,
2.665,0.33,,
2.666,0.31,,
2.667,-0.24,,
2.668,-0.5,,
2.669,-0.51,,
2.67,-0.17,,
2.671,0.04,,
2.672,0.3,,
2.673,0.61,,
2.674,0.76,,
2.675,0.24,,
2.676,-0.17,,
2.677,-0.39,,
2.678,-0.22,,
2.679,-0.01,,
2.68,0.1,,
2.681,0.24,,
2.682,0.22,,
2.683,-0.34,,
2.684,-0.48,,
2.685,-0.1,,
2.686,0.43,,
2.687,0.77,,
2.688,0.66,,
2.689,0.26,,
2.69,0.05,,
2.691,-0.11,,
2.692,-0.05,,
2.693,-0.09,,
2.694,-0.07,,
2.695,-0.09,,
2.696,-0.16,,
2.697,-0.28,,
2.698,-0.29,,
2.699,-0.43,,
2.7,-0.32,,
2.701,-0.12,,
2.702,-0.01,,
2.703,0.17,,
2.704,0.1,,
2.705,0.11,,
2.706,0.14,,
2.707,0.07,,
2.708,0.17,,
2.709,0.14,,
2.71,-0.31,,
2.711,-0.56,,
2.712,-0.67,,
2.713,-0.78,,
2.714,-0.57,,
2.715,-0.25,,
2.716,0.12,,
2.717,0.19,,
2.718,0.11,,
2.719,0.24,,
2.72,0.17,,
2.721,0.07,,
2.722,0.16,,
2.723,0.18,,
2.724,0.17,,
2.725,0.18,,
2.726,0.15,,
2.727,0.32,,
2.728,0.37,,
2.729,0.12,,
2.73,-0.17,,
2.731,-0.22,,
2.732,-0.13,,
2.733,-0.08,,
2.734,-0.08,,
2.735,-0.01,,
2.736,-0.04,,
2.737,-0.09,,
2.738,-0.05,,
2.739,-0.1,,
2.74,-0.19,,
2.741,0.12,,
2.742,0.27,,
2.743,0.34,,
2.744,0.17,,
2.745,-0.07,,
2.746,-0.15,,
2.747,-0.07,,
2.748,-0.21,,
2.749,-0.76,,
2.75,-0.84,,
2.751,-0.94,,
2.752,-1.03,,
2.753,-1.01,,
2.754,-0.79,,
2.755,-0.03,,
2.756,0.44,,
2.757,0.68,,
2.758,0.68,,
2.759,0.99,,
2.76,1.16,,
2.761,0.99,,
2.762,0.63,,
2.763,0.35,,
2.764,0.21,,
2.765,0.21,,
2.766,0.28,,
2.767,0.16,,
2.768,0.14,,
2.769,0.12,,
2.77,0.15,,
2.771,0.15,,
2.772,-0.02,,
2.773,-0.35,,
2.774,-0.89,,
2.775,-1.13,,
2.776,-0.9,,
2.777,-0.44,,
2.778,0.34,,
2.779,0.36,,
2.78,0.07,,
2.781,-0.13,,
2.782,-0.07,,
2.783,0.18,,
2.784,0.3,,
2.785,0.17,,
2.786,0.13,,
2.787,0.14,,
2.788,0.04,,
2.789,-0.09,,
2.79,-0.18,,
2.791,-0.07,,
2.792,-0.16,,
2.793,-0.29,,
2.794,-0.28,,
2.795,-0.33,,
2.796,-0.1,,
2.797,0.11,,
2.798,0.14,,
2.799,0.19,,
2.8,0.05,,
2.801,0.05,,
2.802,0.13,,
2.803,0.1,,
2.804,0.16,,
2.805,0.15,,
2.806,0.1,,
2.807,0,,
2.808,-0.08,,
2.809,-0.18,,
2.81,-0.15,,
2.811,-0.22,,
2.812,-0.23,,
2.813,-0.28,,
2.814,-0.18,,
2.815,-0.21,,
2.816,-0.23,,
2.817,-0.39,,
2.818,-0.63,,
2.819,-0.59,,
2.82,-0.6,,
2.821,-0.71,,
2.822,-0.1,,
2.823,0.66,,
2.824,1.02,,
2.825,0.67,,
2.826,0.31,,
2.827,0.21,,
2.828,0.51,,
2.829,0.82,,
2.83,0.69,,
2.831,0.33,,
2.832,0.18,,
2.833,0.14,,
2.834,0.08,,
2.835,0.07,,
2.836,-0.01,,
2.837,-0.2,,
2.838,-0.37,,
2.839,-0.49,,
2.84,-0.44,,
2.841,-0.16,,
2.842,0.22,,
2.843,0.11,,
2.844,-0.03,,
2.845,-0.13,,
2.846,-0.05,,
2.847,-0.01,,
2.848,0.03,,
2.849,0.18,,
2.85,0.03,,
2.851,-0.4,,
2.852,-0.51,,
2.853,-0.23,,
2.854,-0.11,,
2.855,-0.12,,
2.856,0,,
2.857,-0.08,,
2.858,0.1,,
2.859,0.11,,
2.86,0.2,,
2.861,-0.01,,
2.862,-0.2,,
2.863,-0.22,,
2.864,-0.06,,
2.865,0.11,,
2.866,0.42,,
2.867,0.69,,
2.868,0.4,,
2.869,0.06,,
2.87,-0.32,,
2.871,-0.51,,
2.872,-0.37,,
2.873,-0.03,,
2.874,0.44,,
2.875,0.4,,
2.876,0.06,,
2.877,-0.1,,
2.878,-0.09,,
2.879,-0.12,,
2.88,-0.23,,
2.881,-0.2,,
2.882,-0.11,,
2.883,-0.4,,
2.884,-0.51,,
2.885,-0.24,,
2.886,0.12,,
2.887,0.41,,
2.888,0.27,,
2.889,0.43,,
2.89,0.51,,
2.891,-0.29,,
2.892,-0.65,,
2.893,-0.5,,
2.894,-0.06,,
2.895,0.39,,
2.896,0.5,,
2.897,0.26,,
2.898,0.07,,
2.899,-0.07,,
2.9,0.16,,
2.901,0.36,,
2.902,0.23,,
2.903,0.17,,
2.904,0.15,,
2.905,0.1,,
2.906,0.03,,
2.907,-0.26,,
2.908,-0.5,,
2.909,-0.43,,
2.91,-0.3,,
2.911,-0.22,,
2.912,-0.32,,
2.913,-0.34,,
2.914,-0.32,,
2.915,-0.3,,
2.916,-0.39,,
2.917,-0.01,,
2.918,-0.05,,
2.919,-0.35,,
2.92,0.06,,
2.921,0.32,,
2.922,0.53,,
2.923,0.72,,
2.924,0.57,,
2.925,0.39,,
2.926,0.37,,
2.927,0.32,,
2.928,0.24,,
2.929,0.16,,
2.93,-0.17,,
2.931,-0.32,,
2.932,-0.22,,
2.933,-0.09,,
2.934,0,,
2.935,0.25,,
2.936,0.3,,
2.937,0.16,,
2.938,-0.16,,
2.939,-0.46,,
2.94,-0.48,,
2.941,-0.39,,
2.942,-0.3,,
2.943,-0.1,,
2.944,0.24,,
2.945,0.19,,
2.946,0.2,,
2.947,0.34,,
2.948,0.3,,
2.949,0.18,,
2.95,0.11,,
2.951,0.06,,
2.952,0.05,,
2.953,-0.08,,
2.954,-0.21,,
2.955,-0.26,,
2.956,-0.23,,
2.957,-0.17,,
2.958,-0.12,,
2.959,-0.15,,
2.96,0.01,,
2.961,-0.06,,
2.962,-0.19,,
2.963,-0.05,,
2.964,0.08,,
2.965,0.08,,
2.966,0.22,,
2.967,0.18,,
2.968,0.05,,
2.969,0.13,,
2.97,0.17,,
2.971,0.21,,
2.972,0.21,,
2.973,0.14,,
2.974,0.11,,
2.975,0.11,,
2.976,0.08,,
2.977,-0.04,,
2.978,-0.12,,
2.979,-0.25,,
2.98,-0.43,,
2.981,-0.69,,
2.982,-0.78,,
2.983,-0.63,,
2.984,-0.11,,
2.985,0.4,,
2.986,0.35,,
2.987,0.27,,
2.988,0.4,,
2.989,0.32,,
2.99,-0.08,,
2.991,-0.3,,
2.992,-0.21,,
2.993,-0.07,,
2.994,-0.14,,
2.995,-0.02,,
2.996,-0.03,,
2.997,0.07,,
2.998,0.04,,
2.999,0.11,,
3,0.25,,
3.001,0.16,,
3.002,0.14,,
3.003,0.26,,
3.004,0.21,,
3.005,0.04,,
3.006,-0.03,,
3.007,-0.08,,
3.008,-0.14,,
3.009,-0.23,,
3.01,-0.15,,
3.011,-0.03,,
3.012,0.02,,
3.013,0.07,,
3.014,0.2,,
3.015,0.23,,
3.016,0.11,,
3.017,0.07,,
3.018,0.14,,
3.019,0.12,,
3.02,0,,
3.021,-0.05,,
3.022,-0.06,,
3.023,-0.08,,
3.024,-0.05,,
3.025,-0.05,,
3.026,-0.02,,
3.027,0,,
3.028,0.01,,
3.029,0.01,,
3.03,0.02,,
3.031,0,,
3.032,0.02,,
3.033,0.01,,
3.034,0.04,,
3.035,0.05,,
3.036,0.05,,
3.037,-0.01,,
3.038,-0.03,,
3.039,-0.06,,
3.04,-0.06,,
3.041,-0.11,,
3.042,-0.13,,
3.043,-0.14,,
3.044,-0.1,,
3.045,-0.08,,
3.046,-0.04,,
3.047,0.01,,
3.048,-0.02,,
3.049,0,,
3.05,0,,
3.051,0.04,,
3.052,0.06,,
3.053,0.17,,
3.054,0.21,,
3.055,0.13,,
3.056,-0.1,,
3.057,-0.21,,
3.058,-0.4,,
3.059,-0.61,,
3.06,-0.54,,
3.061,-0.27,,
3.062,0.16,,
3.063,0.43,,
3.064,0.53,,
3.065,0.32,,
3.066,0.15,,
3.067,0.11,,
3.068,0.11,,
3.069,0.13,,
3.07,0.13,,
3.071,0.12,,
3.072,0.08,,
3.073,0.06,,
3.074,0.04,,
3.075,0.04,,
3.076,0.03,,
3.077,0.02,,
3.078,-0.02,,
3.079,-0.04,,
3.08,-0.08,,
3.081,-0.12,,
3.082,-0.09,,
3.083,-0.13,,
3.084,-0.13,,
3.085,-0.09,,
3.086,-0.08,,
3.087,0,,
3.088,0.03,,
3.089,0.06,,
3.09,0.05,,
3.091,0.1,,
3.092,0.07,,
3.093,0.07,,
3.094,0.02,,
3.095,0,,
3.096,0.02,,
3.097,0.06,,
3.098,0.05,,
3.099,0.02,,
3.1,0.02,,
3.101,-0.03,,
3.102,-0.07,,
3.103,-0.1,,
3.104,-0.13,,
3.105,-0.15,,
3.106,-0.19,,
3.107,-0.13,,
3.108,-0.05,,
3.109,0.02,,
3.11,0.08,,
3.111,0.09,,
3.112,0.12,,
3.113,0.1,,
3.114,0.05,,
3.115,0.02,,
3.116,0.01,,
3.117,0,,
3.118,0.04,,
3.119,0.04,,
3.12,0.01,,
3.121,0.01,,
3.122,-0.02,,
3.123,-0.03,,
3.124,-0.06,,
3.125,-0.07,,
3.126,-0.06,,
3.127,-0.02,,
3.128,0.01,,
3.129,0.05,,
3.13,0.06,,
3.131,0.07,,
3.132,0.09,,
3.133,0.1,,
3.134,0.08,,
3.135,0.1,,
3.136,0.11,,
3.137,0.1,,
3.138,0.1,,
3.139,0.08,,
3.14,0.05,,
3.141,0.05,,
3.142,0,,
3.143,-0.01,,
3.144,-0.01,,
3.145,-0.02,,
3.146,-0.03,,
3.147,-0.01,,
3.148,-0.01,,
3.149,0.02,,
3.15,0.1,,
3.151,0.14,,
3.152,0.11,,
3.153,0.09,,
3.154,0.08,,
3.155,0.07,,
3.156,0.09,,
3.157,0.1,,
3.158,0.09,,
3.159,0.11,,
3.16,0.1,,
3.161,0.06,,
3.162,0.05,,
3.163,-0.01,,
3.164,-0.01,,
3.165,-0.05,,
3.166,-0.07,,
3.167,-0.08,,
3.168,-0.03,,
3.169,0.02,,
3.17,0.08,,
3.171,0.09,,
3.172,0.1,,
3.173,0.11,,
3.174,0.11,,
3.175,0.09,,
3.176,0.07,,
3.177,0.1,,
3.178,0.07,,
3.179,0.06,,
3.18,0.04,,
3.181,0.02,,
3.182,-0.01,,
3.183,-0.04,,
3.184,-0.06,,
3.185,-0.06,,
3.186,-0.01,,
3.187,-0.01,,
3.188,0,,
3.189,0.02,,
3.19,0.03,,
3.191,0.03,,
3.192,0.05,,
3.193,0.06,,
3.194,0.06,,
3.195,0.07,,
3.196,0.07,,
3.197,0.08,,
3.198,0.1,,
3.199,0.09,,
3.2,0.03,,
3.201,0.03,,
3.202,-0.02,,
3.203,-0.05,,
3.204,-0.06,,
3.205,-0.06,,
3.206,-0.07,,
3.207,-0.06,,
3.208,-0.04,,
3.209,-0.04,,
3.21,0.01,,
3.211,0.03,,
3.212,0.04,,
3.213,0.07,,
3.214,0.07,,
3.215,0.07,,
3.216,0.07,,
3.217,0.05,,
3.218,0.05,,
3.219,0.05,,
3.22,0.04,,
3.221,0.03,,
3.222,0.02,,
3.223,-0.02,,
3.224,-0.04,,
3.225,-0.05,,
3.226,-0.09,,
3.227,-0.08,,
3.228,-0.06,,
3.229,-0.04,,
3.23,-0.03,,
3.231,0.03,,
3.232,0.04,,
3.233,0.07,,
3.234,0.06,,
3.235,0.08,,
3.236,0.07,,
3.237,0.07,,
3.238,0.07,,
3.239,0.05,,
3.24,0.03,,
3.241,0.03,,
3.242,0.02,,
3.243,-0.01,,
3.244,-0.03,,
3.245,-0.07,,
3.246,-0.07,,
3.247,-0.05,,
3.248,-0.05,,
3.249,-0.03,,
3.25,-0.01,,
3.251,0.01,,
3.252,0.03,,
3.253,0.05,,
3.254,0.04,,
3.255,0.06,,
3.256,0.05,,
3.257,0.06,,
3.258,0.04,,
3.259,0.04,,
3.26,0.02,,
3.261,0,,
3.262,-0.02,,
3.263,-0.02,,
3.264,-0.05,,
3.265,-0.07,,
3.266,-0.1,,
3.267,-0.1,,
3.268,-0.19,,
3.269,-0.25,,
3.27,-0.26,,
3.271,-0.22,,
3.272,-0.14,,
3.273,-0.05,,
3.274,0,,
3.275,0.07,,
3.276,0.15,,
3.277,0.22,,
3.278,0.41,,
3.279,0.39,,
3.28,0.29,,
3.281,0.2,,
3.282,0.08,,
3.283,0.09,,
3.284,0.06,,
3.285,0.04,,
3.286,0.06,,
3.287,0.05,,
3.288,-0.01,,
3.289,-0.03,,
3.29,-0.04,,
3.291,0,,
3.292,0.01,,
3.293,0.01,,
3.294,0.02,,
3.295,0.04,,
3.296,0.03,,
3.297,0.04,,
3.298,0.01,,
3.299,0.03,,
3.3,0.02,,
3.301,0,,
3.302,-0.01,,
3.303,-0.01,,
3.304,-0.04,,
3.305,-0.07,,
3.306,-0.1,,
3.307,-0.08,,
3.308,-0.1,,
3.309,-0.12,,
3.31,-0.07,,
3.311,-0.06,,
3.312,-0.03,,
3.313,0.01,,
3.314,0.04,,
3.315,0.06,,
3.316,0.04,,
3.317,0.05,,
3.318,0.06,,
3.319,0.06,,
3.32,0.09,,
3.321,0.08,,
3.322,0.05,,
3.323,-0.02,,
3.324,-0.09,,
3.325,-0.1,,
3.326,-0.1,,
3.327,-0.1,,
3.328,-0.07,,
3.329,-0.08,,
3.33,-0.06,,
3.331,-0.04,,
3.332,-0.01,,
3.333,0.03,,
3.334,0.03,,
3.335,0.05,,
3.336,0.08,,
3.337,0.05,,
3.338,0.06,,
3.339,0.04,,
3.34,0.04,,
3.341,0.05,,
3.342,0.04,,
3.343,0.02,,
3.344,0.01,,
3.345,-0.03,,
3.346,-0.07,,
3.347,-0.07,,
3.348,-0.09,,
3.349,-0.09,,
3.35,-0.07,,
3.351,-0.06,,
3.352,-0.03,,
3.353,0,,
3.354,0.02,,
3.355,0.03,,
3.356,0.02,,
3.357,0.03,,
3.358,0.03,,
3.359,0.05,,
3.36,0.04,,
3.361,0.05,,
3.362,0.05,,
3.363,0.03,,
3.364,0.02,,
3.365,-0.01,,
3.366,-0.02,,
3.367,-0.05,,
3.368,-0.06,,
3.369,-0.07,,
3.37,-0.08,,
3.371,-0.08,,
3.372,-0.05,,
3.373,-0.01,,
3.374,0,,
3.375,0.03,,
3.376,0.06,,
3.377,0.06,,
3.378,0.07,,
3.379,0.05,,
3.38,0.07,,
3.381,0.06,,
3.382,0.04,,
3.383,0.05,,
3.384,0.03,,
3.385,0,,
3.386,-0.01,,
3.387,-0.04,,
3.388,-0.07,,
3.389,-0.09,,
3.39,-0.11,,
3.391,-0.09,,
3.392,-0.07,,
3.393,-0.03,,
3.394,0,,
3.395,0.01,,
3.396,0.1,,
3.397,0.06,,
3.398,0.06,,
3.399,0.05,,
3.4,0.07,,
3.401,0.04,,
3.402,0.05,,
3.403,0.04,,
3.404,0.04,,
3.405,0.01,,
3.406,-0.02,,
3.407,-0.03,,
3.408,-0.03,,
3.409,-0.06,,
3.41,-0.06,,
3.411,-0.06,,
3.412,-0.07,,
3.413,-0.02,,
3.414,-0.04,,
3.415,0,,
3.416,0.02,,
3.417,0.05,,
3.418,0.04,,
3.419,0.03,,
3.42,0.02,,
3.421,-0.01,,
3.422,0.02,,
3.423,0.01,,
3.424,0,,
3.425,-0.02,,
3.426,-0.07,,
3.427,-0.11,,
3.428,-0.16,,
3.429,-0.19,,
3.43,-0.17,,
3.431,-0.09,,
3.432,0,,
3.433,0.09,,
3.434,0.19,,
3.435,0.22,,
3.436,0.16,,
3.437,0.11,,
3.438,0.08,,
3.439,0.08,,
3.44,0.07,,
3.441,0.08,,
3.442,0.06,,
3.443,0.04,,
3.444,0.04,,
3.445,0.03,,
3.446,0.01,,
3.447,-0.01,,
3.448,-0.05,,
3.449,-0.07,,
3.45,-0.1,,
3.451,-0.08,,
3.452,-0.1,,
3.453,-0.07,,
3.454,-0.07,,
3.455,-0.03,,
3.456,0,,
3.457,0.02,,
3.458,0.04,,
3.459,0.03,,
3.46,0.06,,
3.461,0.04,,
3.462,0.04,,
3.463,0.03,,
3.464,0,,
3.465,-0.01,,
3.466,0,,
3.467,-0.03,,
3.468,-0.02,,
3.469,-0.04,,
3.47,-0.05,,
3.471,-0.03,,
3.472,-0.06,,
3.473,-0.04,,
3.474,-0.04,,
3.475,-0.03,,
3.476,0.02,,
3.477,0.01,,
3.478,0.03,,
3.479,0.01,,
3.48,-0.04,,
3.481,-0.04,,
3.482,-0.04,,
3.483,-0.07,,
3.484,-0.1,,
3.485,-0.12,,
3.486,-0.18,,
3.487,-0.24,,
3.488,-0.21,,
3.489,-0.2,,
3.49,-0.14,,
3.491,-0.07,,
3.492,0.01,,
3.493,0.2,,
3.494,0.4,,
3.495,0.43,,
3.496,0.33,,
3.497,0.24,,
3.498,0.16,,
3.499,0.14,,
3.5,0.11,,
3.501,0.1,,
3.502,0.08,,
3.503,0.05,,
3.504,0.05,,
3.505,0.04,,
3.506,0.02,,
3.507,0.01,,
3.508,-0.02,,
3.509,-0.05,,
3.51,-0.05,,
3.511,-0.11,,
3.512,-0.12,,
3.513,-0.13,,
3.514,-0.12,,
3.515,-0.06,,
3.516,-0.04,,
3.517,-0.03,,
3.518,0,,
3.519,0.03,,
3.52,0.03,,
3.521,0.02,,
3.522,0.02,,
3.523,0.05,,
3.524,0.01,,
3.525,0.03,,
3.526,0.02,,
3.527,0.01,,
3.528,-0.01,,
3.529,0,,
3.53,-0.03,,
3.531,-0.07,,
3.532,-0.06,,
3.533,-0.09,,
3.534,-0.07,,
3.535,-0.08,,
3.536,-0.06,,
3.537,-0.01,,
3.538,0,,
3.539,0.03,,
3.54,0.06,,
3.541,0.02,,
3.542,0.03,,
3.543,0.04,,
3.544,0.06,,
3.545,0.05,,
3.546,0.05,,
3.547,0.04,,
3.548,0.02,,
3.549,0.02,,
3.55,0,,
3.551,0,,
3.552,-0.02,,
3.553,-0.03,,
3.554,-0.09,,
3.555,-0.12,,
3.556,-0.1,,
3.557,-0.08,,
3.558,-0.05,,
3.559,-0.01,,
3.56,0.04,,
3.561,0.03,,
3.562,0.04,,
3.563,0.05,,
3.564,0.03,,
3.565,0.03,,
3.566,-0.02,,
3.567,-0.05,,
3.568,-0.02,,
3.569,-0.02,,
3.57,0.02,,
3.571,0.01,,
3.572,0.01,,
3.573,-0.02,,
3.574,-0.06,,
3.575,-0.06,,
3.576,-0.07,,
3.577,-0.04,,
3.578,-0.01,,
3.579,0.02,,
3.58,0.06,,
3.581,0.07,,
3.582,0.03,,
3.583,0.02,,
3.584,-0.03,,
3.585,-0.02,,
3.586,-0.01,,
3.587,-0.02,,
3.588,-0.05,,
3.589,-0.18,,
3.59,-0.33,,
3.591,-0.44,,
3.592,-0.49,,
3.593,-0.42,,
3.594,-0.24,,
3.595,0.08,,
3.596,0.43,,
3.597,0.51,,
3.598,0.37,,
3.599,0.27,,
3.6,0.28,,
3.601,0.26,,
3.602,0.2,,
3.603,0.16,,
3.604,0.14,,
3.605,0.13,,
3.606,0.1,,
3.607,0.07,,
3.608,0.04,,
3.609,0.02,,
3.61,0,,
3.611,-0.02,,
3.612,-0.04,,
3.613,-0.07,,
3.614,-0.1,,
3.615,-0.07,,
3.616,-0.08,,
3.617,-0.11,,
3.618,-0.1,,
3.619,-0.09,,
3.62,-0.08,,
3.621,-0.08,,
3.622,-0.13,,
3.623,-0.23,,
3.624,-0.42,,
3.625,-0.6,,
3.626,-0.69,,
3.627,-0.46,,
3.628,-0.08,,
3.629,0.22,,
3.63,0.58,,
3.631,0.85,,
3.632,0.67,,
3.633,0.26,,
3.634,0.08,,
3.635,0.03,,
3.636,-0.02,,
3.637,-0.03,,
3.638,0.01,,
3.639,0,,
3.64,-0.02,,
3.641,-0.05,,
3.642,-0.01,,
3.643,0.02,,
3.644,0.02,,
3.645,-0.04,,
3.646,-0.1,,
3.647,-0.23,,
3.648,-0.42,,
3.649,-0.57,,
3.65,-0.45,,
3.651,-0.23,,
3.652,-0.03,,
3.653,0.26,,
3.654,0.49,,
3.655,0.43,,
3.656,0.25,,
3.657,0.24,,
3.658,0.23,,
3.659,0.19,,
3.66,0.1,,
3.661,0.09,,
3.662,0.08,,
3.663,0.12,,
3.664,0.11,,
3.665,0.1,,
3.666,0.07,,
3.667,0.08,,
3.668,0.03,,
3.669,0.04,,
3.67,0.01,,
3.671,-0.05,,
3.672,-0.15,,
3.673,-0.37,,
3.674,-0.58,,
3.675,-0.67,,
3.676,-0.56,,
3.677,-0.37,,
3.678,0,,
3.679,0.34,,
3.68,0.42,,
3.681,0.29,,
3.682,0.27,,
3.683,0.17,,
3.684,-0.05,,
3.685,-0.19,,
3.686,-0.28,,
3.687,-0.22,,
3.688,-0.19,,
3.689,-0.22,,
3.69,-0.26,,
3.691,-0.23,,
3.692,-0.05,,
3.693,0.22,,
3.694,0.49,,
3.695,0.35,,
3.696,-0.05,,
3.697,-0.24,,
3.698,-0.27,,
3.699,0.02,,
3.7,0.3,,
3.701,0.37,,
3.702,0.35,,
3.703,0.37,,
3.704,0.21,,
3.705,0.08,,
3.706,-0.14,,
3.707,-0.42,,
3.708,-0.71,,
3.709,-0.74,,
3.71,-0.31,,
3.711,-0.19,,
3.712,-0.02,,
3.713,0.13,,
3.714,0.16,,
3.715,0.38,,
3.716,0.63,,
3.717,0.42,,
3.718,0.19,,
3.719,0.04,,
3.72,-0.01,,
3.721,0.01,,
3.722,0.1,,
3.723,0.14,,
3.724,0.05,,
3.725,0.04,,
3.726,0.19,,
3.727,0.28,,
3.728,0.21,,
3.729,0.02,,
3.73,-0.07,,
3.731,-0.13,,
3.732,-0.18,,
3.733,-0.2,,
3.734,-0.23,,
3.735,-0.28,,
3.736,-0.4,,
3.737,-0.16,,
3.738,0.11,,
3.739,-0.09,,
3.74,-0.25,,
3.741,-0.09,,
3.742,0.05,,
3.743,-0.25,,
3.744,-0.47,,
3.745,-0.38,,
3.746,-0.07,,
3.747,0.24,,
3.748,0.72,,
3.749,0.95,,
3.75,0.64,,
3.751,0.43,,
3.752,0.3,,
3.753,0.32,,
3.754,0.25,,
3.755,0.08,,
3.756,-0.09,,
3.757,-0.2,,
3.758,-0.25,,
3.759,-0.32,,
3.76,-0.3,,
3.761,-0.33,,
3.762,-0.37,,
3.763,-0.36,,
3.764,-0.41,,
3.765,-0.51,,
3.766,-0.12,,
3.767,0.38,,
3.768,0.38,,
3.769,0.49,,
3.77,0.71,,
3.771,0.47,,
3.772,0.17,,
3.773,0.02,,
3.774,-0.13,,
3.775,-0.41,,
3.776,-0.58,,
3.777,-0.64,,
3.778,-0.38,,
3.779,-0.22,,
3.78,-0.2,,
3.781,-0.09,,
3.782,0.21,,
3.783,0.28,,
3.784,0.25,,
3.785,0.25,,
3.786,0.16,,
3.787,0.16,,
3.788,0.2,,
3.789,0.21,,
3.79,0.14,,
3.791,0.02,,
3.792,0.04,,
3.793,0,,
3.794,-0.21,,
3.795,-0.42,,
3.796,-0.37,,
3.797,-0.43,,
3.798,-0.42,,
3.799,-0.32,,
3.8,-0.02,,
3.801,0.18,,
3.802,0.17,,
3.803,0.21,,
3.804,-0.02,,
3.805,0.07,,
3.806,0.27,,
3.807,0.17,,
3.808,0.1,,
3.809,0.2,,
3.81,0.12,,
3.811,-0.15,,
3.812,-0.54,,
3.813,-0.67,,
3.814,-0.34,,
3.815,-0.11,,
3.816,-0.38,,
3.817,-0.44,,
3.818,-0.23,,
3.819,-0.08,,
3.82,0.24,,
3.821,0.13,,
3.822,-0.06,,
3.823,0.31,,
3.824,0.79,,
3.825,0.7,,
3.826,0.45,,
3.827,0.17,,
3.828,0.11,,
3.829,0.18,,
3.83,0.26,,
3.831,0.26,,
3.832,0.24,,
3.833,0.13,,
3.834,-0.01,,
3.835,-0.09,,
3.836,-0.12,,
3.837,-0.15,,
3.838,-0.19,,
3.839,-0.26,,
3.84,-0.39,,
3.841,-0.46,,
3.842,-0.69,,
3.843,-0.6,,
3.844,-0.21,,
3.845,0.03,,
3.846,0.3,,
3.847,0.45,,
3.848,0.43,,
3.849,0.35,,
3.85,0.23,,
3.851,0.14,,
3.852,0.09,,
3.853,0.02,,
3.854,-0.06,,
3.855,-0.21,,
3.856,-0.12,,
3.857,-0.06,,
3.858,-0.02,,
3.859,0.06,,
3.86,0,,
3.861,-0.05,,
3.862,-0.02,,
3.863,-0.05,,
3.864,-0.18,,
3.865,-0.18,,
3.866,-0.15,,
3.867,-0.49,,
3.868,-0.82,,
3.869,-0.8,,
3.87,-0.6,,
3.871,-0.21,,
3.872,0.53,,
3.873,0.91,,
3.874,0.66,,
3.875,0.12,,
3.876,-0.38,,
3.877,-0.42,,
3.878,-0.1,,
3.879,0.1,,
3.88,0.5,,
3.881,0.43,,
3.882,0.28,,
3.883,0.26,,
3.884,0.14,,
3.885,0.07,,
3.886,-0.02,,
3.887,-0.36,,
3.888,-0.45,,
3.889,-0.23,,
3.89,-0.13,,
3.891,0.28,,
3.892,0.38,,
3.893,0.34,,
3.894,0.15,,
3.895,0.02,,
3.896,-0.11,,
3.897,-0.27,,
3.898,-0.25,,
3.899,-0.28,,
3.9,-0.25,,
3.901,-0.06,,
3.902,0.09,,
3.903,-0.05,,
3.904,-0.36,,
3.905,-0.49,,
3.906,-0.16,,
3.907,0.2,,
3.908,0.18,,
3.909,-0.21,,
3.91,-0.4,,
3.911,-0.47,,
3.912,-0.32,,
3.913,0.24,,
3.914,0.88,,
3.915,0.93,,
3.916,0.73,,
3.917,0.4,,
3.918,0.2,,
3.919,0.08,,
3.92,0.01,,
3.921,-0.05,,
3.922,-0.12,,
3.923,-0.22,,
3.924,-0.25,,
3.925,-0.19,,
3.926,-0.09,,
3.927,-0.03,,
3.928,0.28,,
3.929,0.28,,
3.93,-0.16,,
3.931,-0.45,,
3.932,-0.79,,
3.933,-1.01,,
3.934,-0.79,,
3.935,-0.28,,
3.936,0.09,,
3.937,0.64,,
3.938,0.64,,
3.939,0.27,,
3.94,-0.02,,
3.941,-0.14,,
3.942,-0.14,,
3.943,0,,
3.944,0.1,,
3.945,0.29,,
3.946,0.38,,
3.947,0.01,,
3.948,-0.13,,
3.949,-0.05,,
3.95,0.1,,
3.951,0.22,,
3.952,0.31,,
3.953,0.45,,
3.954,0.27,,
3.955,-0.15,,
3.956,-0.59,,
3.957,-0.65,,
3.958,-0.34,,
3.959,0.18,,
3.96,0.32,,
3.961,0.4,,
3.962,0.3,,
3.963,0.1,,
3.964,-0.01,,
3.965,-0.08,,
3.966,-0.13,,
3.967,-0.11,,
3.968,-0.11,,
3.969,-0.06,,
3.97,-0.04,,
3.971,0,,
3.972,0.09,,
3.973,0.06,,
3.974,0.14,,
3.975,0.04,,
3.976,-0.11,,
3.977,-0.32,,
3.978,-0.29,,
3.979,-0.32,,
3.98,-0.28,,
3.981,-0.39,,
3.982,-0.64,,
3.983,-0.52,,
3.984,-0.32,,
3.985,-0.23,,
3.986,0,,
3.987,0.48,,
3.988,0.82,,
3.989,0.82,,
3.99,0.44,,
3.991,0.14,,
3.992,0.16,,
3.993,0.23,,
3.994,0.2,,
3.995,0.3,,
3.996,0.29,,
3.997,0.06,,
3.998,-0.25,,
3.999,-0.5,,
4,-0.41,,
4.001,-0.16,,
4.002,-0.06,,
4.003,0.01,,
4.004,0,,
4.005,-0.06,,
4.006,-0.38,,
4.007,-0.52,,
4.008,-0.26,,
4.009,0.06,,
4.01,0.02,,
4.011,0.17,,
4.012,0.42,,
4.013,0.5,,
4.014,0.06,,
4.015,-0.25,,
4.016,-0.22,,
4.017,0.01,,
4.018,0.4,,
4.019,0.63,,
4.02,0.36,,
4.021,0.02,,
4.022,-0.2,,
4.023,-0.39,,
4.024,-0.29,,
4.025,-0.11,,
4.026,-0.14,,
4.027,-0.04,,
4.028,0.07,,
4.029,-0.01,,
4.03,-0.04,,
4.031,-0.02,,
4.032,0.02,,
4.033,0.02,,
4.034,0.12,,
4.035,0.26,,
4.036,0.27,,
4.037,0.17,,
4.038,0.13,,
4.039,0.09,,
4.04,0.05,,
4.041,0.01,,
4.042,-0.03,,
4.043,-0.07,,
4.044,-0.12,,
4.045,-0.14,,
4.046,-0.16,,
4.047,-0.22,,
4.048,-0.21,,
4.049,-0.26,,
4.05,-0.16,,
4.051,-0.02,,
4.052,-0.06,,
4.053,-0.07,,
4.054,-0.1,,
4.055,-0.11,,
4.056,-0.05,,
4.057,-0.19,,
4.058,-0.18,,
4.059,0.01,,
4.06,0.04,,
4.061,0.04,,
4.062,0.05,,
4.063,0.11,,
4.064,-0.04,,
4.065,-0.24,,
4.066,-0.36,,
4.067,-0.28,,
4.068,-0.19,,
4.069,0.45,,
4.07,0.51,,
4.071,0,,
4.072,-0.03,,
4.073,-0.23,,
4.074,-0.06,,
4.075,0.15,,
4.076,0.4,,
4.077,0.53,,
4.078,0.46,,
4.079,0.31,,
4.08,0.25,,
4.081,0.25,,
4.082,0.18,,
4.083,-0.04,,
4.084,-0.18,,
4.085,-0.13,,
4.086,-0.12,,
4.087,-0.2,,
4.088,-0.2,,
4.089,-0.49,,
4.09,-0.6,,
4.091,-0.57,,
4.092,-0.35,,
4.093,0.14,,
4.094,0.46,,
4.095,0.64,,
4.096,0.53,,
4.097,0.09,,
4.098,-0.47,,
4.099,-0.65,,
4.1,-0.51,,
4.101,-0.58,,
4.102,-0.63,,
4.103,-0.38,,
4.104,-0.08,,
4.105,0.27,,
4.106,-0.11,,
4.107,0.15,,
4.108,0.46,,
4.109,0.58,,
4.11,0.26,,
4.111,0.18,,
4.112,0.48,,
4.113,0.81,,
4.114,0.82,,
4.115,0.55,,
4.116,0.29,,
4.117,0.16,,
4.118,0.03,,
4.119,-0.03,,
4.12,-0.07,,
4.121,-0.06,,
4.122,0.04,,
4.123,0.06,,
4.124,-0.08,,
4.125,-0.2,,
4.126,-0.25,,
4.127,-0.21,,
4.128,-0.18,,
4.129,-0.11,,
4.13,-0.1,,
4.131,-0.1,,
4.132,-0.05,,
4.133,0.01,,
4.134,0.06,,
4.135,0.08,,
4.136,0.08,,
4.137,-0.07,,
4.138,-0.07,,
4.139,0.1,,
4.14,0.17,,
4.141,0.06,,
4.142,-0.02,,
4.143,-0.24,,
4.144,-0.65,,
4.145,-1.01,,
4.146,-1.03,,
4.147,-0.61,,
4.148,-0.07,,
4.149,0.47,,
4.15,0.73,,
4.151,0.47,,
4.152,0.19,,
4.153,0.13,,
4.154,0.29,,
4.155,0.28,,
4.156,0.19,,
4.157,0.13,,
4.158,0.08,,
4.159,-0.01,,
4.16,-0.18,,
4.161,-0.15,,
4.162,0.02,,
4.163,0.07,,
4.164,0.03,,
4.165,0.11,,
4.166,0.12,,
4.167,-0.04,,
4.168,-0.21,,
4.169,-0.24,,
4.17,-0.22,,
4.171,-0.14,,
4.172,-0.09,,
4.173,-0.1,,
4.174,-0.16,,
4.175,-0.27,,
4.176,-0.43,,
4.177,-0.17,,
4.178,0.46,,
4.179,0.69,,
4.18,0.47,,
4.181,0.3,,
4.182,0.03,,
4.183,-0.11,,
4.184,-0.13,,
4.185,-0.16,,
4.186,-0.04,,
4.187,-0.11,,
4.188,-0.33,,
4.189,0.09,,
4.19,0.06,,
4.191,-0.21,,
4.192,-0.37,,
4.193,-0.51,,
4.194,-0.41,,
4.195,-0.17,,
4.196,0.24,,
4.197,0.53,,
4.198,0.68,,
4.199,0.69,,
4.2,0.48,,
4.201,0.34,,
4.202,0.2,,
4.203,0,,
4.204,-0.19,,
4.205,-0.42,,
4.206,-0.46,,
4.207,-0.3,,
4.208,0.12,,
4.209,0.27,,
4.21,0.17,,
4.211,0.14,,
4.212,0.1,,
4.213,-0.16,,
4.214,-0.27,,
4.215,-0.42,,
4.216,-0.36,,
4.217,-0.14,,
4.218,-0.01,,
4.219,0.27,,
4.22,0.53,,
4.221,0.42,,
4.222,0.28,,
4.223,0.14,,
4.224,0.1,,
4.225,0.06,,
4.226,0,,
4.227,-0.04,,
4.228,-0.06,,
4.229,-0.09,,
4.23,-0.12,,
4.231,-0.12,,
4.232,-0.12,,
4.233,-0.08,,
4.234,-0.03,,
4.235,-0.01,,
4.236,0,,
4.237,0.03,,
4.238,0.05,,
4.239,0.04,,
4.24,0.05,,
4.241,0.04,,
4.242,0.03,,
4.243,0,,
4.244,0,,
4.245,-0.02,,
4.246,-0.04,,
4.247,-0.06,,
4.248,-0.05,,
4.249,-0.07,,
4.25,-0.06,,
4.251,-0.07,,
4.252,-0.07,,
4.253,-0.05,,
4.254,-0.01,,
4.255,-0.02,,
4.256,0.05,,
4.257,0.04,,
4.258,0.06,,
4.259,0.05,,
4.26,0.04,,
4.261,0.06,,
4.262,0.06,,
4.263,0.03,,
4.264,0,,
4.265,-0.01,,
4.266,0,,
4.267,-0.03,,
4.268,-0.06,,
4.269,-0.09,,
4.27,-0.13,,
4.271,-0.12,,
4.272,-0.09,,
4.273,-0.06,,
4.274,-0.03,,
4.275,-0.01,,
4.276,0.05,,
4.277,0.08,,
4.278,0.06,,
4.279,0.03,,
4.28,0.05,,
4.281,0.06,,
4.282,0.08,,
4.283,0.11,,
4.284,0.11,,
4.285,0.07,,
4.286,0.02,,
4.287,0,,
4.288,0,,
4.289,-0.04,,
4.29,-0.09,,
4.291,-0.09,,
4.292,-0.09,,
4.293,-0.08,,
4.294,-0.09,,
4.295,-0.06,,
4.296,-0.03,,
4.297,0.02,,
4.298,0.09,,
4.299,0.08,,
4.3,0.08,,
4.301,0.08,,
4.302,0.09,,
4.303,0.11,,
4.304,0.13,,
4.305,0.09,,
4.306,0.05,,
4.307,0.03,,
4.308,-0.02,,
4.309,-0.11,,
4.31,-0.19,,
4.311,-0.16,,
4.312,-0.09,,
4.313,-0.05,,
4.314,0.03,,
4.315,0.06,,
4.316,0.09,,
4.317,0.11,,
4.318,0.1,,
4.319,0.08,,
4.32,0.08,,
4.321,0.04,,
4.322,0.07,,
4.323,0.04,,
4.324,0.07,,
4.325,0.13,,
4.326,0.13,,
4.327,0.08,,
4.328,0,,
4.329,-0.03,,
4.33,-0.06,,
4.331,-0.04,,
4.332,-0.02,,
4.333,0.04,,
4.334,0.1,,
4.335,0.15,,
4.336,0.15,,
4.337,0.13,,
4.338,0.08,,
4.339,0.05,,
4.34,0,,
4.341,0.04,,
4.342,0.06,,
4.343,0.06,,
4.344,0.05,,
4.345,0.1,,
4.346,0.11,,
4.347,0.1,,
4.348,0.1,,
4.349,0.09,,
4.35,0.03,,
4.351,-0.04,,
4.352,-0.07,,
4.353,-0.08,,
4.354,-0.08,,
4.355,-0.05,,
4.356,-0.01,,
4.357,0.02,,
4.358,0.08,,
4.359,0.1,,
4.36,0.09,,
4.361,0.11,,
4.362,0.09,,
4.363,0.1,,
4.364,0.08,,
4.365,0.06,,
4.366,0.04,,
4.367,0.02,,
4.368,0.01,,
4.369,0,,
4.37,0,,
4.371,-0.02,,
4.372,-0.06,,
4.373,-0.05,,
4.374,-0.03,,
4.375,-0.04,,
4.376,0.01,,
4.377,0,,
4.378,0.02,,
4.379,0.06,,
4.38,0.06,,
4.381,0.07,,
4.382,0.08,,
4.383,0.07,,
4.384,0.06,,
4.385,0.05,,
4.386,0.05,,
4.387,0.06,,
4.388,0.07,,
4.389,0.01,,
4.39,0,,
4.391,-0.04,,
4.392,-0.06,,
4.393,-0.09,,
4.394,-0.12,,
4.395,-0.09,,
4.396,-0.04,,
4.397,0,,
4.398,0.02,,
4.399,0.03,,
4.4,0.05,,
4.401,0.06,,
4.402,0.07,,
4.403,0.07,,
4.404,0.07,,
4.405,0.06,,
4.406,0.05,,
4.407,0.04,,
4.408,0.05,,
4.409,0.01,,
4.41,-0.02,,
4.411,-0.01,,
4.412,-0.06,,
4.413,-0.07,,
4.414,-0.08,,
4.415,-0.08,,
4.416,-0.04,,
4.417,-0.03,,
4.418,0,,
4.419,0.02,,
4.42,0.04,,
4.421,0.04,,
4.422,0.06,,
4.423,0.06,,
4.424,0.04,,
4.425,0.04,,
4.426,0.04,,
4.427,0.04,,
4.428,0.02,,
4.429,0.03,,
4.43,0.02,,
4.431,-0.02,,
4.432,-0.06,,
4.433,-0.09,,
4.434,-0.08,,
4.435,-0.05,,
4.436,-0.08,,
4.437,-0.03,,
4.438,-0.01,,
4.439,0.03,,
4.44,0.04,,
4.441,0.05,,
4.442,0.05,,
4.443,0.02,,
4.444,0.01,,
4.445,0,,
4.446,0.02,,
4.447,0.04,,
4.448,0.03,,
4.449,0,,
4.45,-0.03,,
4.451,-0.03,,
4.452,-0.04,,
4.453,-0.07,,
4.454,-0.07,,
4.455,0.02,,
4.456,0.03,,
4.457,0.05,,
4.458,0.04,,
4.459,0.04,,
4.46,0.08,,
4.461,0.06,,
4.462,0.06,,
4.463,0.08,,
4.464,0.05,,
4.465,0.05,,
4.466,0.05,,
4.467,0.05,,
4.468,0.05,,
4.469,0.03,,
4.47,0,,
4.471,0,,
4.472,-0.05,,
4.473,-0.05,,
4.474,-0.06,,
4.475,-0.1,,
4.476,-0.11,,
4.477,-0.08,,
4.478,-0.03,,
4.479,0,,
4.48,0,,
4.481,0.02,,
4.482,0.03,,
4.483,0.03,,
4.484,0.03,,
4.485,0.03,,
4.486,0.02,,
4.487,-0.02,,
4.488,-0.09,,
4.489,-0.15,,
4.49,-0.21,,
4.491,-0.21,,
4.492,-0.17,,
4.493,-0.09,,
4.494,-0.02,,
4.495,0.09,,
4.496,0.17,,
4.497,0.22,,
4.498,0.24,,
4.499,0.17,,
4.5,0.11,,
4.501,0.09,,
4.502,0.07,,
4.503,0.06,,
4.504,0.06,,
4.505,0.06,,
4.506,0.05,,
4.507,0.04,,
4.508,0.05,,
4.509,0.04,,
4.51,0.06,,
4.511,0.01,,
4.512,-0.01,,
4.513,-0.06,,
4.514,-0.08,,
4.515,-0.11,,
4.516,-0.11,,
4.517,-0.1,,
4.518,-0.11,,
4.519,-0.05,,
4.52,-0.04,,
4.521,-0.01,,
4.522,0.02,,
4.523,0.03,,
4.524,0.02,,
4.525,0.04,,
4.526,0.04,,
4.527,0.04,,
4.528,0.05,,
4.529,0.08,,
4.53,0.05,,
4.531,0.05,,
4.532,0.01,,
4.533,-0.03,,
4.534,-0.06,,
4.535,-0.12,,
4.536,-0.12,,
4.537,-0.07,,
4.538,-0.07,,
4.539,-0.07,,
4.54,-0.03,,
4.541,-0.02,,
4.542,0.04,,
4.543,0.04,,
4.544,0.06,,
4.545,0.05,,
4.546,0.05,,
4.547,0.08,,
4.548,0.04,,
4.549,0.04,,
4.55,0.05,,
4.551,0.04,,
4.552,0.02,,
4.553,-0.01,,
4.554,-0.03,,
4.555,-0.06,,
4.556,-0.1,,
4.557,-0.09,,
4.558,-0.06,,
4.559,-0.07,,
4.56,-0.04,,
4.561,0,,
4.562,0.03,,
4.563,0.06,,
4.564,0.05,,
4.565,0.07,,
4.566,0.04,,
4.567,0.04,,
4.568,0.04,,
4.569,0.06,,
4.57,0.03,,
4.571,0.06,,
4.572,0.02,,
4.573,0.03,,
4.574,-0.02,,
4.575,-0.05,,
4.576,-0.05,,
4.577,-0.09,,
4.578,-0.06,,
4.579,-0.09,,
4.58,-0.06,,
4.581,-0.03,,
4.582,0,,
4.583,0.02,,
4.584,0.05,,
4.585,0.04,,
4.586,0.04,,
4.587,0.04,,
4.588,0.05,,
4.589,0.04,,
4.59,0.03,,
4.591,0.03,,
4.592,0.02,,
4.593,0,,
4.594,0,,
4.595,0,,
4.596,-0.05,,
4.597,-0.07,,
4.598,-0.07,,
4.599,-0.05,,
4.6,-0.05,,
4.601,-0.05,,
4.602,-0.02,,
4.603,0,,
4.604,0.02,,
4.605,0.04,,
4.606,0.06,,
4.607,0.05,,
4.608,0.05,,
4.609,0.04,,
4.61,0.02,,
4.611,0.02,,
4.612,0.03,,
4.613,0.02,,
4.614,-0.02,,
4.615,-0.04,,
4.616,-0.03,,
4.617,-0.06,,
4.618,-0.07,,
4.619,-0.09,,
4.62,-0.06,,
4.621,-0.04,,
4.622,0,,
4.623,0.02,,
4.624,0.01,,
4.625,0.04,,
4.626,0.07,,
4.627,0.07,,
4.628,0.07,,
4.629,0.06,,
4.63,0.08,,
4.631,0.09,,
4.632,0.04,,
4.633,0.02,,
4.634,0.03,,
4.635,0,,
4.636,-0.03,,
4.637,-0.07,,
4.638,-0.1,,
4.639,-0.08,,
4.64,-0.08,,
4.641,-0.09,,
4.642,-0.04,,
4.643,-0.03,,
4.644,0,,
4.645,0.03,,
4.646,0.03,,
4.647,0.03,,
4.648,0.03,,
4.649,0.05,,
4.65,0.05,,
4.651,0.06,,
4.652,0.05,,
4.653,0.03,,
4.654,0.02,,
4.655,0.01,,
4.656,-0.03,,
4.657,-0.06,,
4.658,-0.06,,
4.659,-0.08,,
4.66,-0.08,,
4.661,-0.07,,
4.662,-0.04,,
4.663,-0.03,,
4.664,-0.01,,
4.665,0.04,,
4.666,0.05,,
4.667,0.06,,
4.668,0.06,,
4.669,0.05,,
4.67,0.06,,
4.671,0.05,,
4.672,0.09,,
4.673,0.04,,
4.674,0.02,,
4.675,0,,
4.676,-0.02,,
4.677,-0.06,,
4.678,-0.09,,
4.679,-0.11,,
4.68,-0.12,,
4.681,-0.15,,
4.682,-0.11,,
4.683,-0.06,,
4.684,-0.04,,
4.685,0.01,,
4.686,0.01,,
4.687,0,,
4.688,0,,
4.689,-0.05,,
4.69,0.03,,
4.691,0.06,,
4.692,0.14,,
4.693,0.15,,
4.694,0.13,,
4.695,0.13,,
4.696,0.08,,
4.697,0,,
4.698,-0.12,,
4.699,-0.21,,
4.7,-0.24,,
4.701,-0.28,,
4.702,-0.28,,
4.703,-0.17,,
4.704,0,,
4.705,0.23,,
4.706,0.31,,
4.707,0.21,,
4.708,0.19,,
4.709,0.23,,
4.71,0.24,,
4.711,0.14,,
4.712,0.06,,
4.713,-0.02,,
4.714,-0.13,,
4.715,-0.19,,
4.716,-0.29,,
4.717,-0.35,,
4.718,-0.25,,
4.719,-0.04,,
4.72,0.05,,
4.721,0.1,,
4.722,0.14,,
4.723,0.19,,
4.724,0.23,,
4.725,0.19,,
4.726,0.12,,
4.727,0.09,,
4.728,0.03,,
4.729,0.03,,
4.73,0.04,,
4.731,0.01,,
4.732,0.01,,
4.733,-0.01,,
4.734,-0.05,,
4.735,-0.09,,
4.736,-0.1,,
4.737,-0.11,,
4.738,-0.13,,
4.739,-0.15,,
4.74,-0.05,,
4.741,0.01,,
4.742,-0.01,,
4.743,0,,
4.744,0,,
4.745,0.04,,
4.746,0.06,,
4.747,0.08,,
4.748,0.08,,
4.749,0.06,,
4.75,0.05,,
4.751,0.03,,
4.752,0.03,,
4.753,0.04,,
4.754,0.03,,
4.755,0.04,,
4.756,0.01,,
4.757,0.01,,
4.758,0,,
4.759,-0.01,,
4.76,-0.09,,
4.761,-0.09,,
4.762,-0.13,,
4.763,-0.11,,
4.764,-0.15,,
4.765,-0.2,,
4.766,-0.23,,
4.767,-0.21,,
4.768,-0.11,,
4.769,-0.03,,
4.77,0.11,,
4.771,0.21,,
4.772,0.23,,
4.773,0.22,,
4.774,0.18,,
4.775,0.11,,
4.776,0.04,,
4.777,-0.01,,
4.778,-0.04,,
4.779,-0.04,,
4.78,-0.07,,
4.781,-0.11,,
4.782,-0.14,,
4.783,-0.22,,
4.784,-0.3,,
4.785,-0.35,,
4.786,-0.32,,
4.787,-0.15,,
4.788,0.04,,
4.789,0.13,,
4.79,0.14,,
4.791,0.14,,
4.792,0.19,,
4.793,0.12,,
4.794,0.1,,
4.795,0.11,,
4.796,0.03,,
4.797,-0.06,,
4.798,-0.1,,
4.799,-0.08,,
4.8,-0.05,,
4.801,0.04,,
4.802,0.12,,
4.803,0.08,,
4.804,-0.08,,
4.805,-0.22,,
4.806,-0.4,,
4.807,-0.54,,
4.808,-0.54,,
4.809,-0.43,,
4.81,-0.1,,
4.811,0.43,,
4.812,0.71,,
4.813,0.73,,
4.814,0.59,,
4.815,0.38,,
4.816,0.27,,
4.817,0.18,,
4.818,0.07,,
4.819,-0.05,,
4.82,-0.09,,
4.821,-0.19,,
4.822,-0.31,,
4.823,-0.44,,
4.824,-0.55,,
4.825,-0.71,,
4.826,-0.74,,
4.827,-0.65,,
4.828,-0.38,,
4.829,-0.12,,
4.83,0.26,,
4.831,0.78,,
4.832,0.96,,
4.833,0.74,,
4.834,0.63,,
4.835,0.5,,
4.836,0.38,,
4.837,0.27,,
4.838,0.23,,
4.839,0.12,,
4.84,-0.11,,
4.841,-0.53,,
4.842,-0.87,,
4.843,-1.1,,
4.844,-1.1,,
4.845,-0.94,,
4.846,-0.61,,
4.847,-0.14,,
4.848,0.5,,
4.849,0.68,,
4.85,0.7,,
4.851,0.51,,
4.852,0.21,,
4.853,0,,
4.854,0.01,,
4.855,0.19,,
4.856,0.19,,
4.857,0.38,,
4.858,0.46,,
4.859,0.21,,
4.86,0,,
4.861,-0.06,,
4.862,0,,
4.863,0.1,,
4.864,0.07,,
4.865,0,,
4.866,-0.05,,
4.867,-0.29,,
4.868,-0.64,,
4.869,-0.74,,
4.87,-0.56,,
4.871,0.02,,
4.872,0.47,,
4.873,0.7,,
4.874,0.63,,
4.875,0.46,,
4.876,0.36,,
4.877,0.27,,
4.878,0.17,,
4.879,0.1,,
4.88,-0.05,,
4.881,-0.26,,
4.882,-0.39,,
4.883,-0.42,,
4.884,-0.41,,
4.885,-0.39,,
4.886,-0.11,,
4.887,0.13,,
4.888,-0.08,,
4.889,-0.29,,
4.89,-0.23,,
4.891,-0.21,,
4.892,0.09,,
4.893,0.31,,
4.894,0.4,,
4.895,0.4,,
4.896,0.31,,
4.897,0.08,,
4.898,-0.02,,
4.899,0.1,,
4.9,0.21,,
4.901,0.33,,
4.902,0.33,,
4.903,0.09,,
4.904,-0.15,,
4.905,-0.22,,
4.906,-0.14,,
4.907,-0.12,,
4.908,-0.07,,
4.909,-0.04,,
4.91,-0.11,,
4.911,-0.4,,
4.912,-0.62,,
4.913,-0.71,,
4.914,-0.58,,
4.915,-0.29,,
4.916,-0.11,,
4.917,0.08,,
4.918,0.26,,
4.919,0.32,,
4.92,0.56,,
4.921,0.54,,
4.922,0.26,,
4.923,-0.1,,
4.924,-0.4,,
4.925,-0.3,,
4.926,-0.29,,
4.927,-0.14,,
4.928,0.16,,
4.929,0.29,,
4.93,0.31,,
4.931,0.34,,
4.932,0.36,,
4.933,0.29,,
4.934,0.1,,
4.935,-0.04,,
4.936,-0.15,,
4.937,-0.24,,
4.938,-0.34,,
4.939,-0.52,,
4.94,-0.32,,
4.941,-0.06,,
4.942,-0.08,,
4.943,-0.14,,
4.944,-0.24,,
4.945,-0.53,,
4.946,-0.59,,
4.947,-0.6,,
4.948,-0.53,,
4.949,-0.19,,
4.95,0.08,,
4.951,0.45,,
4.952,0.67,,
4.953,0.43,,
4.954,0.47,,
4.955,0.76,,
4.956,0.62,,
4.957,0.53,,
4.958,0.62,,
4.959,0.48,,
4.96,0.16,,
4.961,-0.06,,
4.962,-0.17,,
4.963,-0.22,,
4.964,-0.33,,
4.965,-0.51,,
4.966,-0.34,,
4.967,0.04,,
4.968,-0.16,,
4.969,-0.28,,
4.97,-0.11,,
4.971,0.16,,
4.972,-0.15,,
4.973,-0.5,,
4.974,-0.67,,
4.975,-0.55,,
4.976,-0.33,,
4.977,0.17,,
4.978,0.62,,
4.979,0.56,,
4.98,0.42,,
4.981,0.5,,
4.982,0.15,,
4.983,-0.14,,
4.984,-0.19,,
4.985,-0.19,,
4.986,-0.13,,
4.987,0.09,,
4.988,0.07,,
4.989,0.08,,
4.99,0.3,,
4.991,0.16,,
4.992,-0.13,,
4.993,-0.4,,
4.994,-0.49,,
4.995,-0.53,,
4.996,-0.38,,
4.997,-0.11,,
4.998,-0.04,,
4.999,0.04,,
5,0.14,,
5.001,-0.09,,
5.002,-0.07,,
5.003,-0.17,,
5.004,-0.41,,
5.005,-0.66,,
5.006,-0.62,,
5.007,-0.25,,
5.008,0.19,,
5.009,0.37,,
5.01,0.59,,
5.011,0.61,,
5.012,0.46,,
5.013,0.49,,
5.014,0.45,,
5.015,0.36,,
5.016,0.26,,
5.017,0.19,,
5.018,0.12,,
5.019,0.04,,
5.02,-0.08,,
5.021,-0.08,,
5.022,-0.03,,
5.023,-0.08,,
5.024,-0.03,,
5.025,0.01,,
5.026,-0.06,,
5.027,-0.2,,
5.028,-0.2,,
5.029,-0.13,,
5.03,-0.01,,
5.031,-0.01,,
5.032,0.03,,
5.033,-0.06,,
5.034,-0.08,,
5.035,-0.08,,
5.036,-0.21,,
5.037,-0.35,,
5.038,-0.53,,
5.039,-0.57,,
5.04,-0.52,,
5.041,-0.14,,
5.042,0.36,,
5.043,0.57,,
5.044,0.41,,
5.045,-0.2,,
5.046,-0.88,,
5.047,-1.25,,
5.048,-0.89,,
5.049,-0.28,,
5.05,0.23,,
5.051,0.47,,
5.052,0.51,,
5.053,0.33,,
5.054,-0.08,,
5.055,-0.36,,
5.056,-0.07,,
5.057,0.23,,
5.058,0.82,,
5.059,1.02,,
5.06,0.76,,
5.061,0.54,,
5.062,0.4,,
5.063,0.26,,
5.064,0.18,,
5.065,0.07,,
5.066,-0.03,,
5.067,-0.15,,
5.068,-0.26,,
5.069,-0.26,,
5.07,-0.26,,
5.071,-0.28,,
5.072,-0.12,,
5.073,0.14,,
5.074,0.08,,
5.075,-0.15,,
5.076,-0.19,,
5.077,-0.2,,
5.078,-0.2,,
5.079,-0.21,,
5.08,-0.08,,
5.081,0.2,,
5.082,0.35,,
5.083,0.24,,
5.084,-0.01,,
5.085,-0.11,,
5.086,-0.08,,
5.087,0.01,,
5.088,0.07,,
5.089,0.05,,
5.09,-0.07,,
5.091,-0.09,,
5.092,-0.11,,
5.093,-0.1,,
5.094,-0.19,,
5.095,-0.22,,
5.096,-0.13,,
5.097,-0.04,,
5.098,-0.01,,
5.099,-0.03,,
5.1,-0.06,,
5.101,-0.04,,
5.102,-0.03,,
5.103,-0.09,,
5.104,0.11,,
5.105,0.29,,
5.106,0.28,,
5.107,0.27,,
5.108,0.16,,
5.109,0.08,,
5.11,0.11,,
5.111,0.09,,
5.112,0,,
5.113,-0.1,,
5.114,-0.43,,
5.115,-0.88,,
5.116,-1.1,,
5.117,-0.88,,
5.118,-0.22,,
5.119,0.3,,
5.12,0.55,,
5.121,0.48,,
5.122,0.16,,
5.123,-0.1,,
5.124,-0.13,,
5.125,0.04,,
5.126,0.11,,
5.127,0.26,,
5.128,0.3,,
5.129,0.21,,
5.13,0.06,,
5.131,-0.01,,
5.132,-0.05,,
5.133,-0.06,,
5.134,0.18,,
5.135,0.47,,
5.136,0.39,,
5.137,0.05,,
5.138,-0.14,,
5.139,-0.14,,
5.14,-0.29,,
5.141,-0.4,,
5.142,-0.38,,
5.143,-0.23,,
5.144,0.09,,
5.145,0.42,,
5.146,0.55,,
5.147,0.35,,
5.148,0.18,,
5.149,0.05,,
5.15,-0.01,,
5.151,-0.09,,
5.152,-0.09,,
5.153,-0.14,,
5.154,-0.1,,
5.155,-0.05,,
5.156,-0.08,,
5.157,-0.03,,
5.158,-0.07,,
5.159,-0.2,,
5.16,-0.16,,
5.161,-0.13,,
5.162,0.04,,
5.163,0.33,,
5.164,-0.01,,
5.165,-0.41,,
5.166,-0.38,,
5.167,-0.24,,
5.168,-0.14,,
5.169,0.31,,
5.17,0.63,,
5.171,0.53,,
5.172,0.28,,
5.173,-0.13,,
5.174,-0.36,,
5.175,-0.46,,
5.176,-0.45,,
5.177,-0.18,,
5.178,0.3,,
5.179,0.5,,
5.18,0.29,,
5.181,0.24,,
5.182,0.2,,
5.183,0.13,,
5.184,0.11,,
5.185,0.13,,
5.186,0.01,,
5.187,0.03,,
5.188,-0.01,,
5.189,-0.17,,
5.19,-0.31,,
5.191,-0.45,,
5.192,-0.37,,
5.193,-0.29,,
5.194,-0.04,,
5.195,0.23,,
5.196,0.05,,
5.197,-0.07,,
5.198,-0.07,,
5.199,-0.02,,
5.2,0.09,,
5.201,0.05,,
5.202,0.02,,
5.203,-0.06,,
5.204,-0.33,,
5.205,-0.49,,
5.206,-0.53,,
5.207,-0.36,,
5.208,-0.19,,
5.209,0.03,,
5.21,0.49,,
5.211,0.82,,
5.212,0.58,,
5.213,0.05,,
5.214,-0.14,,
5.215,-0.13,,
5.216,-0.1,,
5.217,0.19,,
5.218,0.42,,
5.219,0.39,,
5.22,0.34,,
5.221,0.34,,
5.222,0.2,,
5.223,-0.11,,
5.224,-0.27,,
5.225,-0.63,,
5.226,-0.9,,
5.227,-0.87,,
5.228,-0.39,,
5.229,0.07,,
5.23,0.44,,
5.231,0.57,,
5.232,0.19,,
5.233,-0.01,,
5.234,0.02,,
5.235,-0.02,,
5.236,-0.09,,
5.237,0.02,,
5.238,0.2,,
5.239,0.19,,
5.24,0.22,,
5.241,0.24,,
5.242,0.24,,
5.243,0.16,,
5.244,0.12,,
5.245,0.1,,
5.246,0.15,,
5.247,0.07,,
5.248,0.07,,
5.249,-0.03,,
5.25,-0.12,,
5.251,-0.32,,
5.252,-0.4,,
5.253,-0.35,,
5.254,-0.33,,
5.255,-0.25,,
5.256,-0.13,,
5.257,0.06,,
5.258,0.11,,
5.259,0.36,,
5.26,0.36,,
5.261,0.23,,
5.262,0.12,,
5.263,0.1,,
5.264,0.06,,
5.265,0.06,,
5.266,0.08,,
5.267,0.04,,
5.268,0.01,,
5.269,-0.02,,
5.27,-0.04,,
5.271,-0.06,,
5.272,-0.12,,
5.273,-0.14,,
5.274,-0.14,,
5.275,-0.14,,
5.276,-0.1,,
5.277,-0.09,,
5.278,-0.05,,
5.279,0.02,,
5.28,0.09,,
5.281,0.11,,
5.282,0.09,,
5.283,0.07,,
5.284,0.07,,
5.285,0.09,,
5.286,0.06,,
5.287,-0.15,,
5.288,-0.28,,
5.289,-0.29,,
5.29,-0.2,,
5.291,-0.18,,
5.292,-0.16,,
5.293,-0.16,,
5.294,-0.62,,
5.295,-1.02,,
5.296,-0.88,,
5.297,-0.29,,
5.298,0.32,,
5.299,0.76,,
5.3,0.83,,
5.301,0.76,,
5.302,0.65,,
5.303,0.53,,
5.304,0.32,,
5.305,0.21,,
5.306,0.16,,
5.307,0.15,,
5.308,0.13,,
5.309,0.03,,
5.31,0,,
5.311,-0.03,,
5.312,-0.11,,
5.313,-0.21,,
5.314,-0.15,,
5.315,-0.07,,
5.316,-0.07,,
5.317,0.07,,
5.318,-0.04,,
5.319,-0.22,,
5.32,-0.24,,
5.321,-0.26,,
5.322,-0.23,,
5.323,-0.15,,
5.324,0.02,,
5.325,0.24,,
5.326,0.25,,
5.327,0.22,,
5.328,0.23,,
5.329,0.12,,
5.33,0.03,,
5.331,-0.15,,
5.332,-0.23,,
5.333,-0.12,,
5.334,-0.02,,
5.335,0.08,,
5.336,0.11,,
5.337,0.05,,
5.338,-0.11,,
5.339,-0.33,,
5.34,-0.41,,
5.341,-0.33,,
5.342,-0.03,,
5.343,0.37,,
5.344,0.45,,
5.345,0.25,,
5.346,0.13,,
5.347,0.1,,
5.348,0.08,,
5.349,0.1,,
5.35,0.09,,
5.351,0.04,,
5.352,-0.03,,
5.353,-0.07,,
5.354,-0.11,,
5.355,-0.1,,
5.356,-0.07,,
5.357,-0.11,,
5.358,-0.11,,
5.359,-0.06,,
5.36,0,,
5.361,0.04,,
5.362,0.05,,
5.363,-0.01,,
5.364,-0.15,,
5.365,-0.18,,
5.366,-0.21,,
5.367,-0.12,,
5.368,0.03,,
5.369,0.08,,
5.37,0.17,,
5.371,0.19,,
5.372,0.16,,
5.373,0.06,,
5.374,-0.01,,
5.375,-0.06,,
5.376,-0.03,,
5.377,-0.04,,
5.378,-0.03,,
5.379,-0.01,,
5.38,0.01,,
5.381,0,,
5.382,0.03,,
5.383,0.03,,
5.384,0,,
5.385,0,,
5.386,-0.01,,
5.387,-0.02,,
5.388,0,,
5.389,0.05,,
5.39,0,,
5.391,-0.12,,
5.392,-0.26,,
5.393,-0.34,,
5.394,-0.31,,
5.395,-0.19,,
5.396,-0.12,,
5.397,-0.02,,
5.398,0.08,,
5.399,0.1,,
5.4,0.23,,
5.401,0.23,,
5.402,0.23,,
5.403,0.2,,
5.404,0.13,,
5.405,0.11,,
5.406,0.11,,
5.407,0.11,,
5.408,0.1,,
5.409,0.12,,
5.41,0.13,,
5.411,0.08,,
5.412,-0.02,,
5.413,-0.12,,
5.414,-0.25,,
5.415,-0.35,,
5.416,-0.4,,
5.417,-0.37,,
5.418,-0.34,,
5.419,-0.16,,
5.42,0.17,,
5.421,0.29,,
5.422,0.22,,
5.423,0.21,,
5.424,0.16,,
5.425,-0.01,,
5.426,-0.35,,
5.427,-0.65,,
5.428,-0.79,,
5.429,-0.68,,
5.43,-0.43,,
5.431,0.35,,
5.432,0.88,,
5.433,0.74,,
5.434,0.58,,
5.435,0.49,,
5.436,0.32,,
5.437,0.19,,
5.438,0.11,,
5.439,0.05,,
5.44,0.02,,
5.441,0.04,,
5.442,0,,
5.443,0.03,,
5.444,0.04,,
5.445,0.04,,
5.446,0.06,,
5.447,0,,
5.448,0,,
5.449,0,,
5.45,0.01,,
5.451,0.03,,
5.452,0.02,,
5.453,0,,
5.454,-0.04,,
5.455,-0.08,,
5.456,-0.11,,
5.457,-0.09,,
5.458,-0.08,,
5.459,-0.09,,
5.46,-0.1,,
5.461,-0.11,,
5.462,-0.11,,
5.463,-0.08,,
5.464,-0.02,,
5.465,0.02,,
5.466,0.03,,
5.467,0.04,,
5.468,0.05,,
5.469,0.03,,
5.47,0.06,,
5.471,0.05,,
5.472,0.01,,
5.473,-0.01,,
5.474,-0.02,,
5.475,-0.06,,
5.476,-0.05,,
5.477,-0.06,,
5.478,-0.05,,
5.479,-0.04,,
5.48,-0.03,,
5.481,-0.03,,
5.482,-0.05,,
5.483,-0.04,,
5.484,-0.01,,
5.485,0.01,,
5.486,0.02,,
5.487,0.05,,
5.488,0.07,,
5.489,0.07,,
5.49,0.08,,
5.491,0.06,,
5.492,0.04,,
5.493,0.06,,
5.494,0,,
5.495,0.02,,
5.496,-0.05,,
5.497,-0.2,,
5.498,-0.32,,
5.499,-0.25,,
5.5,-0.13,,
5.501,-0.05,,
5.502,0.06,,
5.503,0.17,,
5.504,0.06,,
5.505,0.05,,
5.506,0,,
5.507,-0.18,,
5.508,-0.2,,
5.509,-0.14,,
5.51,-0.07,,
5.511,-0.07,,
5.512,0,,
5.513,-0.01,,
5.514,0,,
5.515,-0.1,,
5.516,-0.08,,
5.517,-0.06,,
5.518,0.08,,
5.519,0.29,,
5.52,0.3,,
5.521,-0.01,,
5.522,-0.27,,
5.523,-0.19,,
5.524,0.06,,
5.525,0.38,,
5.526,0.47,,
5.527,0.3,,
5.528,0.18,,
5.529,0.09,,
5.53,0.06,,
5.531,0.07,,
5.532,0.06,,
5.533,0.04,,
5.534,-0.01,,
5.535,-0.03,,
5.536,-0.03,,
5.537,-0.02,,
5.538,-0.04,,
5.539,-0.05,,
5.54,-0.08,,
5.541,-0.06,,
5.542,-0.06,,
5.543,-0.05,,
5.544,-0.12,,
5.545,-0.13,,
5.546,-0.06,,
5.547,0.03,,
5.548,0.12,,
5.549,0.14,,
5.55,0.14,,
5.551,0.13,,
5.552,0.07,,
5.553,-0.02,,
5.554,-0.11,,
5.555,-0.12,,
5.556,-0.11,,
5.557,-0.09,,
5.558,-0.09,,
5.559,-0.05,,
5.56,-0.08,,
5.561,-0.1,,
5.562,-0.08,,
5.563,-0.02,,
5.564,0.02,,
5.565,0.05,,
5.566,0.02,,
5.567,0,,
5.568,-0.02,,
5.569,0.01,,
5.57,0.03,,
5.571,0.04,,
5.572,0.02,,
5.573,0.03,,
5.574,0.02,,
5.575,0.01,,
5.576,-0.03,,
5.577,-0.03,,
5.578,-0.03,,
5.579,-0.01,,
5.58,0.01,,
5.581,-0.02,,
5.582,-0.03,,
5.583,-0.07,,
5.584,-0.03,,
5.585,0.02,,
5.586,0.09,,
5.587,0.15,,
5.588,0.16,,
5.589,0.13,,
5.59,0.14,,
5.591,0.14,,
5.592,0.11,,
5.593,0.14,,
5.594,0.17,,
5.595,0.13,,
5.596,0.06,,
5.597,0.04,,
5.598,-0.05,,
5.599,-0.12,,
5.6,-0.14,,
5.601,-0.11,,
5.602,-0.06,,
5.603,-0.02,,
5.604,0.02,,
5.605,0.09,,
5.606,0.07,,
5.607,0.08,,
5.608,0.11,,
5.609,0.13,,
5.61,0.16,,
5.611,0.13,,
5.612,0.12,,
5.613,0.13,,
5.614,0.15,,
5.615,0.18,,
5.616,0.18,,
5.617,0.18,,
5.618,0.17,,
5.619,0.13,,
5.62,0.06,,
5.621,0,,
5.622,0.02,,
5.623,0.01,,
5.624,-0.06,,
5.625,-0.02,,
5.626,0,,
5.627,0.02,,
5.628,0.04,,
5.629,0.08,,
5.63,0.11,,
5.631,0.12,,
5.632,0.13,,
5.633,0.15,,
5.634,0.13,,
5.635,0.09,,
5.636,0.07,,
5.637,0.04,,
5.638,-0.02,,
5.639,-0.03,,
5.64,-0.03,,
5.641,-0.03,,
5.642,-0.01,,
5.643,-0.01,,
5.644,-0.01,,
5.645,0,,
5.646,0.01,,
5.647,0.05,,
5.648,0.06,,
5.649,0.08,,
5.65,0.04,,
5.651,0.06,,
5.652,0.06,,
5.653,0.05,,
5.654,0.06,,
5.655,0.08,,
5.656,0.08,,
5.657,0.05,,
5.658,0.04,,
5.659,0.04,,
5.66,-0.04,,
5.661,-0.05,,
5.662,-0.07,,
5.663,-0.06,,
5.664,-0.09,,
5.665,-0.06,,
5.666,-0.03,,
5.667,0,,
5.668,0,,
5.669,0.04,,
5.67,0.01,,
5.671,0.04,,
5.672,0.05,,
5.673,0.06,,
5.674,0.05,,
5.675,0.06,,
5.676,0.06,,
5.677,0.05,,
5.678,0.02,,
5.679,0.01,,
5.68,-0.01,,
5.681,-0.05,,
5.682,-0.07,,
5.683,-0.09,,
5.684,-0.09,,
5.685,-0.07,,
5.686,-0.05,,
5.687,-0.03,,
5.688,-0.01,,
5.689,0.02,,
5.69,0.04,,
5.691,0.04,,
5.692,0.07,,
5.693,0.1,,
5.694,0.08,,
5.695,0.06,,
5.696,0.06,,
5.697,0.06,,
5.698,0.03,,
5.699,0.02,,
5.7,0,,
5.701,-0.02,,
5.702,-0.05,,
5.703,-0.09,,
5.704,-0.09,,
5.705,-0.09,,
5.706,-0.09,,
5.707,-0.03,,
5.708,-0.01,,
5.709,0.03,,
5.71,0.04,,
5.711,0.04,,
5.712,0.03,,
5.713,0.07,,
5.714,0.08,,
5.715,0.05,,
5.716,0.04,,
5.717,0.02,,
5.718,0.03,,
5.719,0.01,,
5.72,0.01,,
5.721,-0.02,,
5.722,-0.06,,
5.723,-0.08,,
5.724,-0.08,,
5.725,-0.09,,
5.726,-0.09,,
5.727,-0.04,,
5.728,-0.01,,
5.729,0.01,,
5.73,0.02,,
5.731,0.05,,
5.732,0.03,,
5.733,0.05,,
5.734,0.05,,
5.735,0.06,,
5.736,0.03,,
5.737,0.04,,
5.738,0.04,,
5.739,0.01,,
5.74,0.03,,
5.741,-0.01,,
5.742,-0.04,,
5.743,-0.06,,
5.744,-0.09,,
5.745,-0.08,,
5.746,-0.09,,
5.747,-0.06,,
5.748,-0.04,,
5.749,-0.01,,
5.75,0.01,,
5.751,0.04,,
5.752,0.05,,
5.753,0.05,,
5.754,0.04,,
5.755,0.06,,
5.756,0.06,,
5.757,0.05,,
5.758,0.04,,
5.759,0.04,,
5.76,0.01,,
5.761,-0.01,,
5.762,-0.05,,
5.763,-0.07,,
5.764,-0.09,,
5.765,-0.1,,
5.766,-0.08,,
5.767,-0.08,,
5.768,-0.04,,
5.769,0,,
5.77,0.02,,
5.771,0.04,,
5.772,0.06,,
5.773,0.04,,
5.774,0.02,,
5.775,0.04,,
5.776,0.05,,
5.777,0.06,,
5.778,0.04,,
5.779,0.02,,
5.78,0.01,,
5.781,0,,
5.782,-0.03,,
5.783,-0.05,,
5.784,-0.07,,
5.785,-0.09,,
5.786,-0.1,,
5.787,-0.08,,
5.788,-0.04,,
5.789,-0.04,,
5.79,-0.01,,
5.791,0,,
5.792,0.06,,
5.793,0.04,,
5.794,0.05,,
5.795,0.04,,
5.796,0.03,,
5.797,0.04,,
5.798,0.07,,
5.799,0.06,,
5.8,0.04,,
5.801,0.02,,
5.802,0.01,,
5.803,-0.04,,
5.804,-0.05,,
5.805,-0.08,,
5.806,-0.09,,
5.807,-0.09,,
5.808,-0.09,,
5.809,-0.08,,
5.81,-0.05,,
5.811,-0.01,,
5.812,0.03,,
5.813,0.03,,
5.814,0.03,,
5.815,0.04,,
5.816,0.03,,
5.817,0.06,,
5.818,0.07,,
5.819,0.04,,
5.82,0.03,,
5.821,0.01,,
5.822,0,,
5.823,0.01,,
5.824,-0.02,,
5.825,-0.07,,
5.826,-0.07,,
5.827,-0.08,,
5.828,-0.06,,
5.829,-0.06,,
5.83,-0.03,,
5.831,-0.02,,
5.832,0.01,,
5.833,0.05,,
5.834,0.05,,
5.835,0.06,,
5.836,0.09,,
5.837,0.06,,
5.838,0.08,,
5.839,0.05,,
5.84,0.04,,
5.841,0.06,,
5.842,-0.01,,
5.843,0,,
5.844,-0.04,,
5.845,-0.06,,
5.846,-0.07,,
5.847,-0.07,,
5.848,-0.07,,
5.849,-0.03,,
5.85,-0.03,,
5.851,0,,
5.852,0,,
5.853,0.03,,
5.854,0.08,,
5.855,0.06,,
5.856,0.08,,
5.857,0.07,,
5.858,0.04,,
5.859,0.05,,
5.86,0.03,,
5.861,0.02,,
5.862,0.03,,
5.863,-0.02,,
5.864,-0.05,,
5.865,-0.06,,
5.866,-0.09,,
5.867,-0.06,,
5.868,-0.07,,
5.869,-0.06,,
5.87,-0.07,,
5.871,-0.03,,
5.872,0,,
5.873,0.02,,
5.874,0.04,,
5.875,0.04,,
5.876,0.05,,
5.877,0.07,,
5.878,0.04,,
5.879,0.04,,
5.88,0.04,,
5.881,0.05,,
5.882,0.03,,
5.883,0.01,,
5.884,-0.01,,
5.885,-0.02,,
5.886,-0.06,,
5.887,-0.1,,
5.888,-0.1,,
5.889,-0.06,,
5.89,-0.08,,
5.891,-0.06,,
5.892,-0.02,,
5.893,0.01,,
5.894,0.04,,
5.895,0.06,,
5.896,0.08,,
5.897,0.07,,
5.898,0.07,,
5.899,0.06,,
5.9,0.06,,
5.901,0.06,,
5.902,0.05,,
5.903,0.03,,
5.904,0,,
5.905,-0.03,,
5.906,-0.04,,
5.907,-0.07,,
5.908,-0.07,,
5.909,-0.06,,
5.91,-0.06,,
5.911,-0.03,,
5.912,-0.02,,
5.913,0.01,,
5.914,0.03,,
5.915,0.04,,
5.916,0.04,,
5.917,0.07,,
5.918,0.05,,
5.919,0.06,,
5.92,0.07,,
5.921,0.06,,
5.922,0.04,,
5.923,0.04,,
5.924,0.02,,
5.925,-0.02,,
5.926,-0.02,,
5.927,-0.05,,
5.928,-0.08,,
5.929,-0.08,,
5.93,-0.07,,
5.931,-0.06,,
5.932,-0.04,,
5.933,-0.03,,
5.934,0,,
5.935,0.02,,
5.936,0.04,,
5.937,0.06,,
5.938,0.09,,
5.939,0.08,,
5.94,0.11,,
5.941,0.09,,
5.942,0.06,,
5.943,0.05,,
5.944,0.04,,
5.945,0.02,,
5.946,0,,
5.947,-0.06,,
5.948,-0.08,,
5.949,-0.11,,
5.95,-0.11,,
5.951,-0.05,,
5.952,-0.05,,
5.953,-0.03,,
5.954,0.02,,
5.955,0.02,,
5.956,0.03,,
5.957,0.04,,
5.958,0.05,,
5.959,0.05,,
5.96,0.05,,
5.961,0.04,,
5.962,0.09,,
5.963,0.07,,
5.964,0.05,,
5.965,0.03,,
5.966,-0.01,,
5.967,-0.03,,
5.968,-0.05,,
5.969,-0.06,,
5.97,-0.09,,
5.971,-0.06,,
5.972,-0.06,,
5.973,-0.01,,
5.974,-0.02,,
5.975,0.03,,
5.976,0.05,,
5.977,0.05,,
5.978,0.06,,
5.979,0.04,,
5.98,0.07,,
5.981,0.05,,
5.982,0.05,,
5.983,0.06,,
5.984,0.07,,
5.985,0.04,,
5.986,0.01,,
5.987,-0.01,,
5.988,-0.04,,
5.989,-0.07,,
5.99,-0.07,,
5.991,-0.07,,
5.992,-0.07,,
5.993,-0.07,,
5.994,-0.03,,
5.995,0.03,,
5.996,0.02,,
5.997,0.04,,
5.998,0.05,,
5.999,0.05,,
6,0.03,,
6.001,0.04,,
6.002,0.05,,
6.003,0.05,,
6.004,0.03,,
6.005,0.01,,
6.006,-0.02,,
6.007,-0.02,,
6.008,-0.05,,
6.009,-0.08,,
6.01,-0.1,,
6.011,-0.1,,
6.012,-0.09,,
6.013,-0.05,,
6.014,-0.01,,
6.015,-0.03,,
6.016,0,,
6.017,0.04,,
6.018,0.03,,
6.019,0.05,,
6.02,0.03,,
6.021,0.08,,
6.022,0.05,,
6.023,0.05,,
6.024,0.04,,
6.025,0.03,,
6.026,0.01,,
6.027,0,,
6.028,-0.04,,
6.029,-0.07,,
6.03,-0.09,,
6.031,-0.08,,
6.032,-0.04,,
6.033,-0.04,,
6.034,-0.03,,
6.035,0,,
6.036,0.01,,
6.037,0.02,,
6.038,0.04,,
6.039,0.01,,
6.04,0.06,,
6.041,0.03,,
6.042,0.02,,
6.043,0.02,,
6.044,0.01,,
6.045,-0.01,,
6.046,-0.01,,
6.047,-0.02,,
6.048,-0.06,,
6.049,-0.07,,
6.05,-0.09,,
6.051,-0.06,,
6.052,-0.03,,
6.053,-0.07,,
6.054,-0.09,,
6.055,-0.08,,
6.056,-0.05,,
6.057,-0.04,,
6.058,0,,
6.059,0.04,,
6.06,0.03,,
6.061,0.05,,
6.062,0.05,,
6.063,0.03,,
6.064,0.05,,
6.065,0.06,,
6.066,0.07,,
6.067,0.01,,
6.068,-0.01,,
6.069,-0.01,,
6.07,-0.04,,
6.071,-0.09,,
6.072,-0.07,,
6.073,-0.1,,
6.074,-0.09,,
6.075,-0.06,,
6.076,-0.02,,
6.077,0.02,,
6.078,0.04,,
6.079,0.05,,
6.08,0.05,,
6.081,0.08,,
6.082,0.08,,
6.083,0.07,,
6.084,0.06,,
6.085,0.08,,
6.086,0.05,,
6.087,0.04,,
6.088,0.03,,
6.089,0.01,,
6.09,-0.02,,
6.091,-0.04,,
6.092,-0.05,,
6.093,-0.09,,
6.094,-0.07,,
6.095,-0.04,,
6.096,-0.01,,
6.097,-0.01,,
6.098,0.01,,
6.099,0.08,,
6.1,0.06,,
6.101,0.07,,
6.102,0.12,,
6.103,0.11,,
6.104,0.08,,
6.105,0.05,,
6.106,0.05,,
6.107,0.07,,
6.108,0.02,,
6.109,0,,
6.11,-0.03,,
6.111,-0.07,,
6.112,-0.08,,
6.113,-0.05,,
6.114,-0.03,,
6.115,-0.02,,
6.116,0.01,,
6.117,0.01,,
6.118,0.02,,
6.119,0.04,,
6.12,0.05,,
6.121,0.09,,
6.122,0.08,,
6.123,0.07,,
6.124,0.06,,
6.125,0.06,,
6.126,0.04,,
6.127,0.06,,
6.128,0.05,,
6.129,0.03,,
6.13,0.03,,
6.131,-0.02,,
6.132,0,,
6.133,-0.02,,
6.134,0,,
6.135,0.01,,
6.136,-0.03,,
6.137,-0.03,,
6.138,-0.01,,
6.139,0.04,,
6.14,0.07,,
6.141,0.08,,
6.142,0.11,,
6.143,0.11,,
6.144,0.13,,
6.145,0.12,,
6.146,0.1,,
6.147,0.07,,
6.148,0.05,,
6.149,0.03,,
6.15,0.01,,
6.151,0,,
6.152,-0.04,,
6.153,-0.08,,
6.154,-0.08,,
6.155,-0.09,,
6.156,-0.06,,
6.157,-0.07,,
6.158,-0.05,,
6.159,-0.04,,
6.16,0,,
6.161,0.04,,
6.162,0.03,,
6.163,0.02,,
6.164,0.04,,
6.165,0,,
6.166,0.03,,
6.167,0.06,,
6.168,0.04,,
6.169,0.03,,
6.17,0.02,,
6.171,0,,
6.172,-0.01,,
6.173,-0.05,,
6.174,-0.06,,
6.175,-0.07,,
6.176,-0.04,,
6.177,-0.03,,
6.178,-0.01,,
6.179,0,,
6.18,0,,
6.181,0,,
6.182,0.01,,
6.183,0.02,,
6.184,0.05,,
6.185,0.07,,
6.186,0.06,,
6.187,0.09,,
6.188,0.01,,
6.189,0.03,,
6.19,0.01,,
6.191,0,,
6.192,-0.02,,
6.193,-0.06,,
6.194,-0.06,,
6.195,-0.08,,
6.196,-0.1,,
6.197,-0.09,,
6.198,-0.04,,
6.199,-0.02,,
6.2,0.01,,
6.201,0.07,,
6.202,0.11,,
6.203,0.13,,
6.204,0.08,,
6.205,0.07,,
6.206,0.06,,
6.207,0.06,,
6.208,0.04,,
6.209,0.04,,
6.21,0.01,,
6.211,-0.01,,
6.212,-0.02,,
6.213,-0.01,,
6.214,-0.05,,
6.215,-0.05,,
6.216,0,,
6.217,-0.03,,
6.218,0.01,,
6.219,0.05,,
6.22,0.04,,
6.221,0.06,,
6.222,0.06,,
6.223,0.07,,
6.224,0.04,,
6.225,0.05,,
6.226,0.05,,
6.227,0.03,,
6.228,0.05,,
6.229,0.04,,
6.23,0.05,,
6.231,0.03,,
6.232,0,,
6.233,-0.03,,
6.234,-0.04,,
6.235,-0.08,,
6.236,-0.09,,
6.237,-0.1,,
6.238,-0.08,,
6.239,-0.06,,
6.24,-0.05,,
6.241,-0.02,,
6.242,0.01,,
6.243,0.04,,
6.244,0.05,,
6.245,0.03,,
6.246,0.03,,
6.247,0.02,,
6.248,0.02,,
6.249,0,,
6.25,-0.01,,
6.251,-0.02,,
6.252,-0.03,,
6.253,-0.04,,
6.254,-0.06,,
6.255,-0.08,,
6.256,-0.1,,
6.257,-0.1,,
6.258,-0.11,,
6.259,-0.1,,
6.26,-0.09,,
6.261,-0.06,,
6.262,-0.01,,
6.263,-0.02,,
6.264,-0.02,,
6.265,0,,
6.266,0.02,,
6.267,0,,
6.268,0.02,,
6.269,0.01,,
6.27,0.01,,
6.271,-0.02,,
6.272,-0.03,,
6.273,-0.04,,
6.274,-0.05,,
6.275,-0.08,,
6.276,-0.1,,
6.277,-0.11,,
6.278,-0.09,,
6.279,-0.09,,
6.28,-0.06,,
6.281,-0.03,,
6.282,0.01,,
6.283,0.01,,
6.284,0.06,,
6.285,0.07,,
6.286,0.09,,
6.287,0.07,,
6.288,0.04,,
6.289,0.01,,
6.29,0,,
6.291,0.02,,
6.292,0,,
6.293,-0.01,,
6.294,-0.04,,
6.295,-0.06,,
6.296,-0.07,,
6.297,-0.09,,
6.298,-0.06,,
6.299,-0.07,,
6.3,-0.05,,
6.301,-0.01,,
6.302,-0.03,,
6.303,0,,
6.304,0.02,,
6.305,0.06,,
6.306,0.04,,
6.307,0,,
6.308,0.01,,
6.309,0.02,,
6.31,0.01,,
6.311,0,,
6.312,0.01,,
6.313,-0.02,,
6.314,-0.03,,
6.315,-0.04,,
6.316,-0.04,,
6.317,-0.07,,
6.318,-0.06,,
6.319,-0.05,,
6.32,-0.08,,
6.321,-0.06,,
6.322,0,,
6.323,0.03,,
6.324,0.03,,
6.325,0.05,,
6.326,0.05,,
6.327,0.05,,
6.328,0.05,,
6.329,0.05,,
6.33,0.07,,
6.331,0.04,,
6.332,0.02,,
6.333,0,,
6.334,-0.04,,
6.335,-0.05,,
6.336,-0.06,,
6.337,-0.07,,
6.338,-0.08,,
6.339,-0.07,,
6.34,-0.09,,
6.341,-0.05,,
6.342,-0.05,,
6.343,-0.02,,
6.344,0.03,,
6.345,0.06,,
6.346,0.02,,
6.347,0.06,,
6.348,0.04,,
6.349,0.03,,
6.35,0.07,,
6.351,0.05,,
6.352,0.03,,
6.353,0,,
6.354,-0.02,,
6.355,0,,
6.356,-0.03,,
6.357,-0.05,,
6.358,-0.06,,
6.359,-0.08,,
6.36,-0.07,,
6.361,-0.06,,
6.362,-0.04,,
6.363,-0.04,,
6.364,0.01,,
6.365,0,,
6.366,0.02,,
6.367,0.03,,
6.368,0.04,,
6.369,0.05,,
6.37,0.06,,
6.371,0.08,,
6.372,0.04,,
6.373,0.03,,
6.374,0,,
6.375,0.02,,
6.376,-0.02,,
6.377,-0.05,,
6.378,-0.06,,
6.379,-0.1,,
6.38,-0.1,,
6.381,-0.08,,
6.382,-0.04,,
6.383,-0.03,,
6.384,0,,
6.385,0.02,,
6.386,0.04,,
6.387,0.04,,
6.388,0.04,,
6.389,0.05,,
6.39,0.05,,
6.391,0.08,,
6.392,0.06,,
6.393,0.04,,
6.394,0.03,,
6.395,0.05,,
6.396,0.01,,
6.397,0.01,,
6.398,-0.03,,
6.399,-0.05,,
6.4,-0.05,,
6.401,-0.06,,
6.402,-0.05,,
6.403,-0.03,,
6.404,-0.02,,
6.405,0,,
6.406,0.03,,
6.407,0.02,,
6.408,0.03,,
6.409,0.04,,
6.41,0.03,,
6.411,0.06,,
6.412,0.05,,
6.413,0.05,,
6.414,0.04,,
6.415,0.01,,
6.416,-0.01,,
6.417,-0.02,,
6.418,-0.05,,
6.419,-0.1,,
6.42,-0.12,,
6.421,-0.13,,
6.422,-0.11,,
6.423,-0.05,,
6.424,-0.04,,
6.425,-0.01,,
6.426,0.01,,
6.427,0.05,,
6.428,0.06,,
6.429,0.05,,
6.43,0.04,,
6.431,0.05,,
6.432,0.02,,
6.433,0.01,,
6.434,-0.03,,
6.435,-0.04,,
6.436,-0.05,,
6.437,-0.04,,
6.438,-0.02,,
6.439,-0.02,,
6.44,-0.06,,
6.441,-0.08,,
6.442,-0.07,,
6.443,-0.09,,
6.444,-0.04,,
6.445,-0.02,,
6.446,0.02,,
6.447,0.01,,
6.448,0,,
6.449,0,,
6.45,0.01,,
6.451,0.01,,
6.452,0.02,,
6.453,0.03,,
6.454,0.02,,
6.455,0.02,,
6.456,0,,
6.457,0,,
6.458,0,,
6.459,-0.04,,
6.46,-0.05,,
6.461,-0.05,,
6.462,-0.04,,
6.463,-0.06,,
6.464,-0.04,,
6.465,0,,
6.466,0.01,,
6.467,0.03,,
6.468,0.05,,
6.469,0.06,,
6.47,0.06,,
6.471,0.04,,
6.472,0.07,,
6.473,0.07,,
6.474,0.05,,
6.475,0.08,,
6.476,0.04,,
6.477,0,,
6.478,0,,
6.479,-0.01,,
6.48,-0.01,,
6.481,-0.05,,
6.482,-0.05,,
6.483,-0.05,,
6.484,-0.02,,
6.485,-0.02,,
6.486,0,,
6.487,0.01,,
6.488,0.02,,
6.489,0.03,,
6.49,0.03,,
6.491,0.04,,
6.492,0.01,,
6.493,0.03,,
6.494,0.06,,
6.495,0.04,,
6.496,0.04,,
6.497,0.06,,
6.498,0.01,,
6.499,0.02,,
6.5,-0.02,,
6.501,-0.05,,
6.502,-0.07,,
6.503,-0.05,,
6.504,-0.05,,
6.505,-0.04,,
6.506,-0.02,,
6.507,-0.01,,
6.508,0.01,,
6.509,0.04,,
6.51,0.04,,
6.511,0.04,,
6.512,0.03,,
6.513,0.04,,
6.514,0.04,,
6.515,0.04,,
6.516,0.06,,
6.517,0.04,,
6.518,0.01,,
6.519,-0.02,,
6.52,-0.04,,
6.521,-0.06,,
6.522,-0.06,,
6.523,-0.05,,
6.524,-0.08,,
6.525,-0.05,,
6.526,-0.03,,
6.527,-0.01,,
6.528,0,,
6.529,0.04,,
6.53,0.06,,
6.531,0.04,,
6.532,0.05,,
6.533,0.05,,
6.534,0.05,,
6.535,0.03,,
6.536,0.02,,
6.537,-0.01,,
6.538,-0.01,,
6.539,-0.02,,
6.54,-0.04,,
6.541,-0.05,,
6.542,-0.08,,
6.543,-0.08,,
6.544,-0.07,,
6.545,-0.06,,
6.546,-0.06,,
6.547,-0.05,,
6.548,-0.03,,
6.549,0,,
6.55,0.03,,
6.551,0.03,,
6.552,0.04,,
6.553,0.06,,
6.554,0.06,,
6.555,0.04,,
6.556,0.03,,
6.557,0.01,,
6.558,-0.01,,
6.559,-0.03,,
6.56,0,,
6.561,-0.02,,
6.562,-0.03,,
6.563,-0.07,,
6.564,-0.06,,
6.565,-0.07,,
6.566,-0.04,,
6.567,-0.05,,
6.568,-0.03,,
6.569,0.03,,
6.57,0.07,,
6.571,0.04,,
6.572,0.04,,
6.573,0.01,,
6.574,0.01,,
6.575,0.02,,
6.576,0.03,,
6.577,0.01,,
6.578,0.02,,
6.579,0,,
6.58,-0.02,,
6.581,-0.03,,
6.582,-0.04,,
6.583,-0.07,,
6.584,-0.08,,
6.585,-0.07,,
6.586,-0.06,,
6.587,-0.05,,
6.588,-0.03,,
6.589,-0.02,,
6.59,0,,
6.591,0.02,,
6.592,0.05,,
6.593,0.04,,
6.594,0.04,,
6.595,0.02,,
6.596,0.03,,
6.597,0.04,,
6.598,0.03,,
6.599,0,,
6.6,0,,
6.601,-0.03,,
6.602,-0.05,,
6.603,-0.05,,
6.604,-0.08,,
6.605,-0.06,,
6.606,-0.07,,
6.607,-0.04,,
6.608,-0.01,,
6.609,-0.03,,
6.61,0.01,,
6.611,0.04,,
6.612,0.07,,
6.613,0.05,,
6.614,0.05,,
6.615,0.04,,
6.616,0.06,,
6.617,0.05,,
6.618,0.07,,
6.619,0.03,,
6.62,0.01,,
6.621,0.02,,
6.622,0,,
6.623,-0.03,,
6.624,-0.06,,
6.625,-0.06,,
6.626,-0.06,,
6.627,-0.06,,
6.628,-0.05,,
6.629,-0.05,,
6.63,-0.02,,
6.631,0,,
6.632,0.06,,
6.633,0.05,,
6.634,0.07,,
6.635,0.06,,
6.636,0.05,,
6.637,0.06,,
6.638,0.04,,
6.639,0.02,,
6.64,0.01,,
6.641,-0.01,,
6.642,0,,
6.643,0,,
6.644,-0.04,,
6.645,-0.06,,
6.646,-0.08,,
6.647,-0.06,,
6.648,-0.05,,
6.649,-0.04,,
6.65,-0.02,,
6.651,0,,
6.652,0.02,,
6.653,0.05,,
6.654,0.07,,
6.655,0.07,,
6.656,0.04,,
6.657,0.03,,
6.658,0.04,,
6.659,0.04,,
6.66,0.03,,
6.661,0.01,,
6.662,0,,
6.663,-0.02,,
6.664,-0.05,,
6.665,-0.06,,
6.666,-0.06,,
6.667,-0.04,,
6.668,-0.06,,
6.669,-0.06,,
6.67,-0.04,,
6.671,0,,
6.672,0.02,,
6.673,0.05,,
6.674,0.04,,
6.675,0.05,,
6.676,0.06,,
6.677,0.03,,
6.678,0.04,,
6.679,0.04,,
6.68,0.03,,
6.681,0.04,,
6.682,0.03,,
6.683,0,,
6.684,0,,
6.685,0,,
6.686,-0.07,,
6.687,-0.05,,
6.688,-0.06,,
6.689,-0.05,,
6.69,-0.03,,
6.691,-0.01,,
6.692,0,,
6.693,0.03,,
6.694,0.04,,
6.695,0.05,,
6.696,0.04,,
6.697,0.05,,
6.698,0.04,,
6.699,0.05,,
6.7,0.04,,
6.701,0.02,,
6.702,0,,
6.703,-0.01,,
6.704,-0.02,,
6.705,-0.01,,
6.706,-0.02,,
6.707,-0.01,,
6.708,-0.03,,
6.709,-0.04,,
6.71,-0.08,,
6.711,-0.07,,
6.712,-0.05,,
6.713,0.01,,
6.714,0.03,,
6.715,0.03,,
6.716,0.02,,
6.717,0.01,,
6.718,0.04,,
6.719,0.06,,
6.72,0.06,,
6.721,0.03,,
6.722,0.02,,
6.723,-0.01,,
6.724,0.01,,
6.725,0,,
6.726,-0.02,,
6.727,-0.01,,
6.728,0,,
6.729,-0.04,,
6.73,-0.1,,
6.731,-0.12,,
6.732,-0.11,,
6.733,-0.02,,
6.734,0.04,,
6.735,0.04,,
6.736,0.04,,
6.737,0.04,,
6.738,0.05,,
6.739,0.07,,
6.74,0.06,,
6.741,0.07,,
6.742,0.1,,
6.743,0.06,,
6.744,0.05,,
6.745,-0.03,,
6.746,-0.1,,
6.747,-0.12,,
6.748,-0.08,,
6.749,-0.1,,
6.75,-0.13,,
6.751,-0.1,,
6.752,-0.05,,
6.753,0.01,,
6.754,0.03,,
6.755,0.03,,
6.756,0.07,,
6.757,0.01,,
6.758,-0.02,,
6.759,-0.01,,
6.76,0.03,,
6.761,0.03,,
6.762,0.05,,
6.763,0.07,,
6.764,0.05,,
6.765,0.03,,
6.766,0,,
6.767,-0.01,,
6.768,0,,
6.769,-0.05,,
6.77,-0.01,,
6.771,-0.02,,
6.772,0,,
6.773,0,,
6.774,0,,
6.775,0.02,,
6.776,0.02,,
6.777,0,,
6.778,0,,
6.779,0.02,,
6.78,0.03,,
6.781,0.03,,
6.782,0.04,,
6.783,0.01,,
6.784,0.01,,
6.785,0,,
6.786,-0.01,,
6.787,-0.03,,
6.788,-0.06,,
6.789,-0.05,,
6.79,-0.07,,
6.791,-0.07,,
6.792,-0.08,,
6.793,-0.03,,
6.794,0.01,,
6.795,0.02,,
6.796,0.01,,
6.797,0.04,,
6.798,0.03,,
6.799,0.04,,
6.8,0.05,,
6.801,0.05,,
6.802,0.04,,
6.803,0,,
6.804,0,,
6.805,-0.01,,
6.806,-0.01,,
6.807,-0.04,,
6.808,-0.06,,
6.809,-0.08,,
6.81,-0.07,,
6.811,-0.05,,
6.812,-0.05,,
6.813,-0.05,,
6.814,-0.03,,
6.815,0,,
6.816,0.04,,
6.817,0.06,,
6.818,0.05,,
6.819,0.05,,
6.82,0.04,,
6.821,0.05,,
6.822,0.03,,
6.823,0,,
6.824,-0.01,,
6.825,-0.01,,
6.826,0,,
6.827,0.03,,
6.828,0.01,,
6.829,0,,
6.83,-0.01,,
6.831,-0.01,,
6.832,-0.07,,
6.833,-0.09,,
6.834,-0.07,,
6.835,-0.07,,
6.836,-0.05,,
6.837,-0.01,,
6.838,0.05,,
6.839,0.08,,
6.84,0.08,,
6.841,0.06,,
6.842,0.07,,
6.843,0.04,,
6.844,0.01,,
6.845,0,,
6.846,0,,
6.847,-0.03,,
6.848,-0.05,,
6.849,-0.05,,
6.85,-0.05,,
6.851,-0.03,,
6.852,-0.07,,
6.853,-0.06,,
6.854,-0.03,,
6.855,-0.04,,
6.856,-0.01,,
6.857,0.02,,
6.858,0.06,,
6.859,0.05,,
6.86,0.06,,
6.861,0.06,,
6.862,0.07,,
6.863,0.03,,
6.864,0.03,,
6.865,0.02,,
6.866,0.03,,
6.867,0,,
6.868,0,,
6.869,-0.02,,
6.87,-0.04,,
6.871,-0.06,,
6.872,-0.06,,
6.873,-0.06,,
6.874,-0.05,,
6.875,-0.06,,
6.876,-0.01,,
6.877,0.01,,
6.878,0.05,,
6.879,0.03,,
6.88,0.05,,
6.881,0.04,,
6.882,0.03,,
6.883,0.02,,
6.884,0.02,,
6.885,0.02,,
6.886,0,,
6.887,0,,
6.888,0,,
6.889,-0.02,,
6.89,-0.05,,
6.891,-0.07,,
6.892,-0.08,,
6.893,-0.07,,
6.894,-0.04,,
6.895,-0.06,,
6.896,-0.04,,
6.897,0.01,,
6.898,0.01,,
6.899,0.07,,
6.9,0.07,,
6.901,0.07,,
6.902,0.06,,
6.903,0.03,,
6.904,0.01,,
6.905,0.04,,
6.906,0,,
6.907,-0.01,,
6.908,0,,
6.909,-0.02,,
6.91,-0.04,,
6.911,-0.07,,
6.912,-0.08,,
6.913,-0.07,,
6.914,-0.05,,
6.915,-0.04,,
6.916,-0.02,,
6.917,0,,
6.918,0.02,,
6.919,0.03,,
6.92,0.06,,
6.921,0.04,,
6.922,0.03,,
6.923,0.03,,
6.924,0.03,,
6.925,0.04,,
6.926,0.03,,
6.927,0.02,,
6.928,0.01,,
6.929,-0.02,,
6.93,-0.03,,
6.931,-0.08,,
6.932,-0.08,,
6.933,-0.06,,
6.934,-0.08,,
6.935,-0.06,,
6.936,-0.03,,
6.937,0,,
6.938,0,,
6.939,0.04,,
6.94,0.04,,
6.941,0.05,,
6.942,0.03,,
6.943,0.05,,
6.944,0.04,,
6.945,0.03,,
6.946,0.02,,
6.947,0.02,,
6.948,0,,
6.949,,,
6.95,,,
6.951,,,
6.952,,,
6.953,,,
6.954,,,
6.955,,,
6.956,,,
6.957,,,
6.958,,,
6.959,,,
6.96,,,
6.961,,,
6.962,,,
6.963,,,
